Hg-198(n,g) ENDFB-8.0
Energy(eV) XS(b)
1.00000E-05 99.7025
1.03125E-05 98.1802
1.06250E-05 96.7256
1.09375E-05 95.3338
1.12500E-05 94.0004
1.15625E-05 92.7214
1.18750E-05 91.4933
1.21875E-05 90.3127
1.25000E-05 89.1766
1.28125E-05 88.0824
1.31250E-05 87.0275
1.34375E-05 86.0096
1.37500E-05 85.0266
1.43750E-05 83.1577
1.50000E-05 81.4068
1.56250E-05 79.7620
1.62500E-05 78.2131
1.68750E-05 76.7511
1.75000E-05 75.3680
1.81250E-05 74.0572
1.87500E-05 72.8125
1.93750E-05 71.6284
2.00000E-05 70.5004
2.09375E-05 68.9039
2.18750E-05 67.4112
2.28125E-05 66.0116
2.37500E-05 64.6956
2.46875E-05 63.4553
2.56250E-05 62.2837
2.65625E-05 61.1747
2.75000E-05 60.1229
2.84375E-05 59.1236
2.93750E-05 58.1725
3.03125E-05 57.2659
3.12500E-05 56.4003
3.21875E-05 55.5729
3.31250E-05 54.7809
3.40625E-05 54.0217
3.50000E-05 53.2933
3.59375E-05 52.5936
3.68750E-05 51.9207
3.78125E-05 51.2730
3.87500E-05 50.6490
3.96875E-05 50.0472
4.06250E-05 49.4664
4.25000E-05 48.3629
4.43750E-05 47.3301
4.62500E-05 46.3608
4.81250E-05 45.4487
5.00000E-05 44.5884
5.15625E-05 43.9077
5.31250E-05 43.2571
5.46875E-05 42.6347
5.62500E-05 42.0384
5.78125E-05 41.4664
5.93750E-05 40.9172
6.09375E-05 40.3892
6.25000E-05 39.8811
6.40625E-05 39.3918
6.56250E-05 38.9200
6.71875E-05 38.4648
6.87500E-05 38.0252
7.18750E-05 37.1894
7.50000E-05 36.4064
7.81250E-05 35.6708
8.12500E-05 34.9781
8.43750E-05 34.3243
8.75000E-05 33.7058
9.06250E-05 33.1195
9.37500E-05 32.5629
9.68750E-05 32.0334
0.000100000 31.5289
0.000103125 31.0475
0.000106250 30.5875
0.000109375 30.1474
0.000112500 29.7257
0.000115625 29.3213
0.000118750 28.9329
0.000121875 28.5596
0.000125000 28.2003
0.000128125 27.8543
0.000131250 27.5207
0.000134375 27.1988
0.000137500 26.8880
0.000143750 26.2970
0.000150000 25.7433
0.000156250 25.2232
0.000162500 24.7334
0.000168750 24.2710
0.000175000 23.8337
0.000181250 23.4192
0.000187500 23.0256
0.000193750 22.6511
0.000200000 22.2944
0.000209375 21.7896
0.000218750 21.3176
0.000228125 20.8749
0.000237500 20.4588
0.000246875 20.0666
0.000256250 19.6961
0.000265625 19.3454
0.000275000 19.0128
0.000284375 18.6968
0.000293750 18.3960
0.000303125 18.1093
0.000312500 17.8357
0.000321875 17.5740
0.000331250 17.3235
0.000340625 17.0835
0.000350000 16.8531
0.000359375 16.6319
0.000368750 16.4191
0.000378125 16.2143
0.000387500 16.0170
0.000396875 15.8267
0.000406250 15.6430
0.000425000 15.2940
0.000443750 14.9675
0.000462500 14.6609
0.000481250 14.3725
0.000500000 14.1005
0.000515625 13.8852
0.000531250 13.6795
0.000546875 13.4827
0.000562500 13.2941
0.000578125 13.1132
0.000593750 12.9396
0.000609375 12.7726
0.000625000 12.6120
0.000640625 12.4572
0.000656250 12.3080
0.000671875 12.1641
0.000687500 12.0251
0.000718750 11.7608
0.000750000 11.5132
0.000781250 11.2806
0.000812500 11.0616
0.000843750 10.8548
0.000875000 10.6592
0.000906250 10.4739
0.000937500 10.2978
0.000968750 10.1304
0.00100000 9.97089
0.00103125 9.81867
0.00106250 9.67323
0.00109375 9.53406
0.00112500 9.40073
0.00115625 9.27285
0.00118750 9.15004
0.00121875 9.03200
0.00125000 8.91840
0.00128125 8.80899
0.00131250 8.70351
0.00134375 8.60173
0.00137500 8.50345
0.00143750 8.31657
0.00150000 8.14151
0.00156250 7.97705
0.00162500 7.82218
0.00168750 7.67599
0.00175000 7.53770
0.00181250 7.40663
0.00187500 7.28217
0.00193750 7.16378
0.00200000 7.05099
0.00209375 6.89136
0.00218750 6.74211
0.00228125 6.60215
0.00237500 6.47057
0.00246875 6.34655
0.00256250 6.22941
0.00265625 6.11852
0.00275000 6.01335
0.00284375 5.91343
0.00293750 5.81833
0.00303125 5.72768
0.00312500 5.64114
0.00321875 5.55841
0.00331250 5.47922
0.00340625 5.40333
0.00350000 5.33050
0.00359375 5.26055
0.00368750 5.19328
0.00378125 5.12852
0.00387500 5.06614
0.00396875 5.00597
0.00406250 4.94790
0.00425000 4.83759
0.00443750 4.73434
0.00462500 4.63743
0.00481250 4.54625
0.00500000 4.46024
0.00515625 4.39219
0.00531250 4.32716
0.00546875 4.26493
0.00562500 4.20532
0.00578125 4.14815
0.00593750 4.09325
0.00609375 4.04047
0.00625000 3.98969
0.00640625 3.94078
0.00656250 3.89362
0.00671875 3.84813
0.00687500 3.80419
0.00718750 3.72065
0.00750000 3.64239
0.00781250 3.56887
0.00812500 3.49964
0.00843750 3.43428
0.00875000 3.37246
0.00906250 3.31386
0.00937500 3.25822
0.00968750 3.20529
0.0100000 3.15487
0.0103125 3.10675
0.0106250 3.06078
0.0109375 3.01680
0.0112500 2.97466
0.0115625 2.93425
0.0118750 2.89544
0.0121875 2.85814
0.0125000 2.82225
0.0128125 2.78768
0.0131250 2.75436
0.0134375 2.72221
0.0137500 2.69116
0.0143750 2.63213
0.0150000 2.57682
0.0156250 2.52486
0.0162500 2.47593
0.0168750 2.42974
0.0175000 2.38605
0.0181250 2.34463
0.0187500 2.30531
0.0193750 2.26791
0.0200000 2.23227
0.0206625 2.19628
0.0213250 2.16198
0.0219875 2.12925
0.0226500 2.09796
0.0233125 2.06802
0.0239750 2.03933
0.0246375 2.01181
0.0253000 1.98538
0.0264578 1.94160
0.0276156 1.90060
0.0287734 1.86211
0.0299313 1.82588
0.0310891 1.79171
0.0322469 1.75940
0.0334047 1.72879
0.0345625 1.69973
0.0355274 1.67660
0.0364922 1.65439
0.0374570 1.63305
0.0384219 1.61251
0.0393867 1.59273
0.0403516 1.57367
0.0413164 1.55528
0.0422813 1.53752
0.0442109 1.50377
0.0461406 1.47216
0.0480703 1.44248
0.0500000 1.41454
0.0515625 1.39308
0.0531250 1.37258
0.0546875 1.35296
0.0562500 1.33417
0.0578125 1.31614
0.0593750 1.29884
0.0609375 1.28221
0.0625000 1.26621
0.0640625 1.25080
0.0656250 1.23596
0.0671875 1.22164
0.0687500 1.20781
0.0718750 1.18152
0.0750000 1.15688
0.0781250 1.13374
0.0812500 1.11194
0.0843750 1.09137
0.0875000 1.07191
0.0906250 1.05347
0.0937500 1.03597
0.0968750 1.01933
0.100000 1.00347
0.103125 0.988349
0.106250 0.973900
0.109375 0.960077
0.112500 0.946838
0.115625 0.934143
0.118750 0.921954
0.121875 0.910240
0.125000 0.898972
0.128125 0.888122
0.131250 0.877669
0.134375 0.867591
0.137500 0.857863
0.143750 0.839369
0.150000 0.822032
0.156250 0.805746
0.162500 0.790414
0.168750 0.775949
0.175000 0.762272
0.181250 0.749315
0.187500 0.737019
0.193750 0.725334
0.200000 0.714215
0.209375 0.698483
0.218750 0.683767
0.228125 0.669974
0.237500 0.657014
0.246875 0.644809
0.256250 0.633288
0.265625 0.622390
0.275000 0.612061
0.284375 0.602255
0.293750 0.592928
0.303125 0.584044
0.312500 0.575568
0.321875 0.567472
0.331250 0.559727
0.340625 0.552309
0.350000 0.545197
0.359375 0.538369
0.368750 0.531808
0.378125 0.525498
0.387500 0.519423
0.396875 0.513575
0.406250 0.507943
0.425000 0.497246
0.443750 0.487227
0.462500 0.477838
0.500000 0.460737
0.531250 0.447932
0.562500 0.436209
0.625000 0.415541
0.687500 0.397856
0.750000 0.382516
0.812500 0.369058
0.875000 0.357167
0.937500 0.346548
1.00000 0.336972
1.06250 0.328308
1.12500 0.320429
1.25000 0.306620
1.37500 0.294907
1.50000 0.284841
1.62500 0.276099
1.75000 0.268455
1.87500 0.261708
2.00000 0.255699
2.18750 0.247871
2.37500 0.241217
2.56250 0.235518
2.75000 0.230621
2.93750 0.226392
3.12500 0.222727
3.50000 0.216821
3.87500 0.212458
4.25000 0.209333
4.62500 0.207235
5.00000 0.206021
5.31250 0.205604
5.78125 0.205914
6.25000 0.207162
6.87500 0.210329
7.50000 0.215111
7.81250 0.218112
8.28125 0.223427
8.75000 0.229670
9.06250 0.234432
9.37500 0.239689
9.68750 0.245473
10.0000 0.251818
10.3125 0.258768
10.6250 0.266371
10.9375 0.274684
11.2500 0.283772
11.5625 0.293708
11.8750 0.304580
12.1875 0.316485
12.5000 0.329537
12.8125 0.343870
13.1250 0.359637
13.4375 0.377018
13.7500 0.396223
14.0625 0.417500
14.3750 0.441142
14.6875 0.467497
15.0000 0.496984
15.2344 0.521527
15.4688 0.548030
15.7031 0.577354
15.9375 0.609587
16.1719 0.645147
16.4063 0.684478
16.6406 0.728160
16.8750 0.776825
17.0313 0.812435
17.1875 0.850889
17.3438 0.892498
17.5000 0.937618
17.6758 0.993090
17.8516 1.05420
18.0274 1.12174
18.2031 1.19664
18.3789 1.28003
18.5547 1.37324
18.6426 1.42403
18.7305 1.47789
18.8184 1.53506
18.9063 1.59554
19.0137 1.67491
19.1211 1.76108
19.2285 1.85456
19.3359 1.95616
19.4434 2.06685
19.5508 2.18776
19.6582 2.32018
19.7656 2.46563
19.8828 2.64131
19.9414 2.73665
20.0000 2.83753
20.0994 3.02238
20.1987 3.22654
20.2981 3.45294
20.3975 3.70497
20.4472 3.84177
20.4969 3.98633
20.5465 4.13930
20.5962 4.30146
20.6459 4.47387
20.6956 4.65740
20.7453 4.85295
20.7950 5.06149
20.8593 5.35257
20.9235 5.67018
20.9878 6.01777
21.0521 6.39913
21.1164 6.81894
21.1807 7.28243
21.2450 7.79608
21.3093 8.36724
21.3707 8.97454
21.4014 9.30380
21.4321 9.65177
21.4628 10.0202
21.4934 10.4104
21.5241 10.8244
21.5548 11.2639
21.5855 11.7313
21.6162 12.2289
21.6469 12.7594
21.6776 13.3253
21.7083 13.9303
21.7389 14.5777
21.7696 15.2722
21.8003 16.0180
21.8325 16.8610
21.8646 17.7738
21.8968 18.7644
21.9289 19.8417
21.9611 21.0162
21.9932 22.3000
22.0254 23.7069
22.0575 25.2529
22.0896 26.9581
22.1218 28.8448
22.1539 30.9400
22.1700 32.0759
22.1861 33.2756
22.2022 34.5458
22.2182 35.8904
22.2343 37.3171
22.2504 38.8310
22.2665 40.4413
22.2825 42.1542
22.2986 43.9800
22.3147 45.9288
22.3381 49.0074
22.3614 52.4113
22.3848 56.1886
22.4082 60.3971
22.4199 62.6842
22.4316 65.1064
22.4433 67.6745
22.4550 70.4009
22.4667 73.2990
22.4783 76.3839
22.4900 79.6723
22.5017 83.1827
22.5178 88.4131
22.5339 94.1620
22.5500 100.510
22.5660 107.537
22.5821 115.355
22.5901 119.598
22.5982 124.081
22.6062 128.835
22.6142 133.871
22.6223 139.226
22.6303 144.913
22.6398 152.120
22.6446 155.934
22.6493 159.900
22.6541 164.025
22.6588 168.319
22.6636 172.790
22.6683 177.449
22.6731 182.308
22.6778 187.377
22.6826 192.670
22.6873 198.200
22.6921 203.982
22.6968 210.033
22.7016 216.368
22.7063 222.991
22.7096 227.777
22.7129 232.724
22.7162 237.841
22.7195 243.118
22.7227 248.596
22.7260 254.268
22.7293 260.143
22.7326 266.211
22.7366 273.950
22.7406 282.041
22.7447 290.503
22.7487 299.358
22.7527 308.631
22.7567 318.344
22.7607 328.525
22.7648 339.172
22.7688 350.370
22.7728 362.121
22.7768 374.460
22.7808 387.418
22.7849 401.033
22.7889 415.342
22.7929 430.384
22.7969 446.158
22.8009 462.787
22.8049 480.277
22.8090 498.672
22.8130 517.970
22.8170 538.316
22.8210 559.713
22.8250 582.210
22.8290 605.800
22.8331 630.650
22.8371 656.756
22.8411 684.169
22.8451 712.941
22.8491 743.122
22.8532 774.760
22.8572 807.904
22.8612 842.509
22.8652 878.790
22.8692 916.701
22.8733 956.276
22.8773 997.545
22.8813 1040.53
22.8853 1085.25
22.8893 1131.72
22.8933 1179.81
22.8974 1229.76
22.9014 1281.44
22.9054 1334.83
22.9094 1389.88
22.9134 1446.56
22.9175 1504.81
22.9215 1564.55
22.9255 1625.56
22.9295 1688.04
22.9335 1751.73
22.9416 1882.08
22.9496 2015.81
22.9576 2151.27
22.9657 2287.24
22.9737 2421.88
22.9818 2553.32
22.9898 2679.49
23.0000 2829.26
23.0102 2963.43
23.0204 3078.42
23.0306 3170.59
23.0379 3221.41
23.0453 3258.05
23.0526 3279.89
23.0600 3286.58
23.0663 3280.14
23.0726 3262.51
23.0790 3233.94
23.0853 3194.76
23.0916 3145.47
23.0979 3086.66
23.1042 3019.03
23.1106 2943.38
23.1169 2860.55
23.1232 2771.62
23.1325 2631.78
23.1417 2483.73
23.1510 2330.15
23.1602 2174.21
23.1783 1872.38
23.1873 1726.83
23.1963 1586.97
23.2049 1459.74
23.2135 1339.72
23.2221 1227.28
23.2308 1122.71
23.2394 1026.10
23.2480 937.372
23.2523 895.850
23.2566 856.299
23.2609 818.492
23.2652 782.554
23.2697 746.716
23.2742 712.714
23.2787 680.477
23.2832 649.938
23.2877 621.023
23.2923 593.662
23.2968 567.781
23.3013 543.308
23.3058 520.173
23.3103 498.307
23.3148 477.641
23.3193 458.110
23.3238 439.650
23.3283 422.200
23.3328 405.701
23.3374 390.098
23.3423 374.003
23.3472 358.877
23.3521 344.626
23.3570 331.190
23.3620 318.516
23.3669 306.551
23.3718 295.248
23.3767 284.563
23.3866 264.882
23.3964 247.210
23.4062 231.290
23.4161 216.901
23.4251 204.881
23.4341 193.876
23.4432 183.762
23.4522 174.444
23.4612 165.839
23.4702 157.874
23.4792 150.487
23.4883 143.620
23.4973 137.218
23.5063 131.253
23.5153 125.677
23.5243 120.457
23.5334 115.563
23.5424 110.968
23.5514 106.646
23.5604 102.577
23.5695 98.7359
23.5785 95.1144
23.5875 91.6917
23.5965 88.4532
23.6146 82.4776
23.6326 77.0952
23.6506 72.2290
23.6687 67.8144
23.6867 63.7964
23.7048 60.1286
23.7179 57.6562
23.7310 55.3362
23.7441 53.1546
23.7572 51.1004
23.7704 49.1640
23.7835 47.3362
23.7966 45.6091
23.8097 43.9752
23.8360 40.9601
23.8622 38.2464
23.8885 35.7941
23.9147 33.5703
23.9327 32.1588
23.9508 30.8352
23.9688 29.5917
23.9869 28.4219
24.0049 27.3195
24.0230 26.2806
24.0410 25.2998
24.0590 24.3729
24.0951 22.6650
24.1312 21.1308
24.1673 19.7467
24.2034 18.4943
24.2395 17.3569
24.2755 16.3213
24.3116 15.3755
24.3477 14.5094
24.3838 13.7142
24.4199 12.9828
24.4560 12.3086
24.4920 11.6855
24.5281 11.1083
24.5642 10.5726
24.6003 10.0742
24.6364 9.61003
24.6725 9.17678
24.7085 8.77206
24.7446 8.39327
24.7807 8.03845
24.8168 7.70545
24.8529 7.39269
24.8890 7.09842
24.9251 6.82134
24.9611 6.56001
24.9972 6.31340
25.0333 6.08035
25.0694 5.85990
25.1416 5.45323
25.2137 5.08723
25.2859 4.75665
25.3581 4.45713
25.4302 4.18482
25.5024 3.93661
25.5746 3.70968
25.6467 3.50172
25.6992 3.36118
25.7517 3.22888
25.8042 3.10422
25.8567 2.98668
25.9092 2.87575
25.9616 2.77100
26.0666 2.57778
26.1716 2.40360
26.2765 2.24630
26.3815 2.10387
26.4865 1.97451
26.5915 1.85666
26.6964 1.74902
26.7686 1.68034
26.8408 1.61561
26.9129 1.55454
26.9851 1.49686
27.0573 1.44232
27.1294 1.39071
27.2738 1.29544
27.4181 1.20963
27.5624 1.13208
27.7068 1.06175
27.8511 0.997800
28.0217 0.929420
28.1923 0.867866
28.3629 0.812267
28.5334 0.761886
28.7040 0.716128
28.8746 0.674637
29.0452 0.636496
29.2157 0.601509
29.3601 0.574157
29.5044 0.548658
29.6487 0.524846
29.7931 0.502602
29.9374 0.481774
30.0817 0.462242
30.2261 0.443917
30.3704 0.426698
30.5148 0.410487
30.6591 0.395222
30.8034 0.380830
30.9478 0.367239
31.2364 0.342252
31.5251 0.319849
31.8138 0.299699
32.1024 0.281508
32.3911 0.265036
32.6798 0.250079
32.9685 0.236457
33.2571 0.224020
33.5458 0.212638
33.8345 0.202196
34.0838 0.193860
34.3331 0.186099
34.5824 0.178937
34.8317 0.172154
35.3303 0.159891
35.8289 0.149133
36.0782 0.144226
36.3275 0.139635
36.5768 0.135271
36.8261 0.131201
37.3248 0.123689
37.8234 0.116988
38.4007 0.110117
38.9781 0.104032
39.5554 0.0986401
40.1327 0.0938601
40.7101 0.0895880
41.2874 0.0857823
41.8648 0.0823792
42.4421 0.0793333
43.3868 0.0750244
44.3316 0.0714185
44.8039 0.0698327
45.2763 0.0684022
45.7487 0.0670622
46.2211 0.0658868
46.6934 0.0647734
47.1658 0.0638048
48.1105 0.0621027
49.0553 0.0607395
50.0000 0.0596874
50.9311 0.0589502
51.8622 0.0584435
52.7932 0.0581449
53.7243 0.0580611
55.0433 0.0583429
56.3624 0.0590528
57.6814 0.0601951
59.0004 0.0617883
59.6599 0.0627558
60.3194 0.0638662
60.9789 0.0650781
61.6384 0.0664303
62.2979 0.0679525
62.9575 0.0696366
63.6170 0.0714956
64.2765 0.0735444
65.1300 0.0765124
65.9834 0.0798584
66.8369 0.0836451
67.6904 0.0879481
68.5439 0.0928093
69.3974 0.0983601
69.8241 0.101410
70.2509 0.104696
70.6776 0.108197
71.1043 0.111935
71.7251 0.117892
72.3458 0.124512
72.9665 0.131893
73.5872 0.140150
74.2079 0.149396
74.5183 0.154438
74.8286 0.159823
75.1390 0.165555
75.4494 0.171665
75.7597 0.178184
76.0701 0.185151
76.4968 0.195538
76.9236 0.206972
77.3503 0.219598
77.7770 0.233590
78.2038 0.249146
78.6305 0.266512
78.8439 0.275961
79.0573 0.285978
79.2706 0.296605
79.4840 0.307893
79.8332 0.327948
80.1823 0.350213
80.5315 0.375027
80.7060 0.388510
80.8806 0.402794
81.0552 0.417932
81.2298 0.434004
81.4044 0.451073
81.5789 0.469180
81.7535 0.488408
81.9281 0.508994
82.1027 0.531035
82.2772 0.554622
82.4906 0.585767
82.7040 0.619747
82.9173 0.656920
83.1307 0.697698
83.3441 0.742566
83.5575 0.792092
83.7708 0.846945
83.9842 0.907920
84.0909 0.940994
84.1976 0.975969
84.3043 1.01299
84.4109 1.05223
84.5176 1.09386
84.6243 1.13808
84.7310 1.18512
84.8377 1.23522
84.9444 1.28865
85.0511 1.34570
85.1577 1.40674
85.2644 1.47211
85.3711 1.54226
85.4778 1.61761
85.5845 1.69865
85.6912 1.78597
85.7979 1.88036
85.9045 1.98270
86.0112 2.09391
86.1179 2.21496
86.2246 2.34704
86.3313 2.49149
86.4380 2.64995
86.5446 2.82425
86.6513 3.01663
86.7580 3.22966
86.8647 3.46644
86.9180 3.59485
86.9714 3.73062
87.0247 3.87437
87.0781 4.02668
87.1314 4.18826
87.1848 4.35990
87.2381 4.54248
87.2914 4.73689
87.3448 4.94419
87.3981 5.16557
87.4757 5.51538
87.5533 5.90228
87.6309 6.33171
87.6697 6.56442
87.7085 6.81028
87.7618 7.17195
87.8152 7.56361
87.8685 7.98887
87.9219 8.45154
87.9752 8.95636
88.0286 9.50838
88.0819 10.1138
88.1352 10.7799
88.1886 11.5151
88.2419 12.3292
88.2953 13.2341
88.3219 13.7250
88.3486 14.2442
88.3753 14.7938
88.4019 15.3764
88.4286 15.9947
88.4553 16.6518
88.4820 17.3508
88.5086 18.0956
88.5353 18.8903
88.5620 19.7395
88.6008 21.0832
88.6396 22.5716
88.6784 24.2276
88.6978 25.1266
88.7171 26.0773
88.7365 27.0850
88.7559 28.1540
88.7753 29.2894
88.7947 30.4965
88.8141 31.7830
88.8335 33.1555
88.8529 34.6222
88.8723 36.1915
88.8917 37.8753
88.9111 39.6846
88.9208 40.6405
88.9305 41.6329
88.9402 42.6639
88.9499 43.7345
88.9596 44.8491
88.9693 46.0092
88.9790 47.2174
88.9887 48.4766
88.9984 49.7899
89.0081 51.1605
89.0178 52.5923
89.0275 54.0874
89.0348 55.2559
89.0421 56.4637
89.0493 57.7161
89.0566 59.0120
89.0639 60.3573
89.0712 61.7507
89.0784 63.1990
89.0857 64.7009
89.0906 65.7353
89.0954 66.7968
89.1003 67.8864
89.1051 69.0053
89.1100 70.1544
89.1148 71.3351
89.1197 72.5485
89.1245 73.7934
89.1269 74.4316
89.1336 76.2305
89.1403 78.1015
89.1469 80.0487
89.1536 82.0735
89.1603 84.1867
89.1669 86.3901
89.1736 88.6893
89.1803 91.0863
89.1848 92.7852
89.1894 94.5362
89.1939 96.3414
89.1985 98.1991
89.2030 100.120
89.2075 102.097
89.2121 104.143
89.2166 106.251
89.2233 109.473
89.2300 112.855
89.2366 116.404
89.2433 120.128
89.2500 124.047
89.2566 128.169
89.2633 132.505
89.2700 137.063
89.2766 141.871
89.2833 146.937
89.2900 152.276
89.2967 157.905
89.3033 163.843
89.3100 170.107
89.3167 176.716
89.3233 183.680
89.3300 191.042
89.3367 198.812
89.3433 207.013
89.3500 215.656
89.3567 224.791
89.3633 234.429
89.3700 244.597
89.3767 255.304
89.3833 266.609
89.3900 278.523
89.3967 291.073
89.4033 304.266
89.4100 318.169
89.4167 332.790
89.4233 348.155
89.4300 364.266
89.4367 381.197
89.4433 398.948
89.4500 417.543
89.4567 437.003
89.4634 457.348
89.4700 478.597
89.4767 500.766
89.4834 523.831
89.4900 547.873
89.4967 572.866
89.5034 598.812
89.5100 625.671
89.5167 653.521
89.5234 682.312
89.5300 712.032
89.5367 742.618
89.5434 774.139
89.5500 806.521
89.5634 873.679
89.5767 943.860
89.5900 1016.53
89.6034 1091.29
89.6167 1167.45
89.6434 1321.10
89.6701 1471.04
89.6834 1542.34
89.6967 1609.94
89.7106 1675.29
89.7244 1734.55
89.7383 1786.80
89.7521 1831.17
89.7666 1868.27
89.7811 1895.21
89.7955 1911.46
89.8100 1916.72
89.8205 1913.56
89.8291 1906.66
89.8377 1895.95
89.8548 1863.40
89.8719 1816.75
89.8890 1757.32
89.9027 1701.73
89.9164 1639.92
89.9300 1572.80
89.9437 1501.38
89.9572 1427.06
89.9708 1350.55
89.9979 1194.57
90.0300 1013.03
90.0461 926.138
90.0621 843.129
90.0757 776.362
90.0892 713.135
90.1028 653.661
90.1164 598.068
90.1299 546.404
90.1435 498.654
90.1571 454.741
90.1639 434.171
90.1706 414.542
90.1774 395.773
90.1842 377.896
90.1910 360.835
90.1978 344.614
90.2046 329.158
90.2114 314.486
90.2181 300.525
90.2249 287.290
90.2317 274.712
90.2385 262.800
90.2453 251.490
90.2521 240.787
90.2589 230.633
90.2656 221.031
90.2724 211.925
90.2792 203.316
90.2897 190.892
90.3002 179.488
90.3107 168.999
90.3211 159.367
90.3316 150.500
90.3421 142.346
90.3526 134.828
90.3631 127.902
90.3736 121.503
90.3841 115.593
90.3945 110.117
90.4050 105.046
90.4155 100.333
90.4260 95.9551
90.4365 91.8739
90.4470 88.0703
90.4605 83.5094
90.4741 79.3240
90.4877 75.4699
90.5013 71.9117
90.5148 68.6186
90.5284 65.5633
90.5420 62.7223
90.5555 60.0747
90.5691 57.6024
90.5827 55.2892
90.5962 53.1210
90.6098 51.0851
90.6234 49.1703
90.6370 47.3666
90.6505 45.6652
90.6641 44.0581
90.6912 41.0986
90.7184 38.4386
90.7455 36.0374
90.7727 33.8613
90.7998 31.8822
90.8269 30.0763
90.8541 28.4233
90.8812 26.9066
90.9083 25.5102
90.9355 24.2219
90.9626 23.0305
90.9898 21.9263
91.0169 20.9010
91.0440 19.9469
91.0712 19.0576
91.0983 18.2271
91.1255 17.4504
91.1526 16.7229
91.1797 16.0404
91.2069 15.3993
91.2340 14.7962
91.2612 14.2282
91.2883 13.6925
91.3154 13.1870
91.3426 12.7091
91.3697 12.2569
91.4240 11.4224
91.4783 10.6710
91.5326 9.99176
91.5868 9.37577
91.6411 8.81535
91.6954 8.30401
91.7497 7.83626
91.7990 7.44462
91.8484 7.08189
91.8977 6.74522
91.9470 6.43214
92.0013 6.11235
92.0556 5.81587
92.1099 5.54045
92.1642 5.28412
92.2184 5.04516
92.2727 4.82203
92.3270 4.61338
92.3813 4.41804
92.4355 4.23484
92.4898 4.06282
92.5441 3.90109
92.5984 3.74885
92.6527 3.60537
92.7069 3.46998
92.7612 3.34210
92.8155 3.22119
92.9241 2.99825
93.0326 2.79772
93.1412 2.61670
93.2497 2.45273
93.3583 2.30373
93.4668 2.16794
93.5754 2.04383
93.6839 1.93011
93.7629 1.85326
93.8419 1.78095
93.9208 1.71282
93.9998 1.64857
94.0787 1.58793
94.1577 1.53062
94.3156 1.42495
94.4735 1.32976
94.6314 1.24377
94.7893 1.16588
94.9472 1.09512
95.0557 1.05016
95.1643 1.00794
95.2728 0.968222
95.3814 0.930827
95.4900 0.895572
95.5985 0.862299
95.7071 0.830861
95.8156 0.801129
96.0327 0.746298
96.2499 0.696964
96.4670 0.652414
96.6841 0.612054
96.9012 0.575373
97.1183 0.541940
97.3354 0.511381
97.5525 0.483380
97.7697 0.457657
97.9868 0.433975
98.2039 0.412134
98.4210 0.392006
98.6184 0.375000
98.8158 0.359046
99.0131 0.344103
99.2105 0.330101
99.4079 0.316961
99.6053 0.304617
99.8026 0.292997
100.000 0.282029
100.244 0.269342
100.488 0.257619
100.733 0.246632
100.977 0.236347
101.221 0.226710
101.465 0.217689
101.709 0.209220
101.953 0.201262
102.197 0.193780
102.442 0.186731
102.686 0.180082
102.930 0.173812
103.418 0.162275
103.906 0.151935
104.444 0.141752
104.981 0.132648
105.518 0.124476
106.055 0.117117
106.592 0.110464
107.129 0.104432
107.666 0.0989478
108.203 0.0939460
108.667 0.0899736
109.131 0.0862919
109.595 0.0829116
110.059 0.0797186
110.523 0.0767682
110.986 0.0739784
111.450 0.0714055
111.914 0.0689774
112.378 0.0667049
112.842 0.0645860
113.306 0.0625737
113.770 0.0607052
114.697 0.0572623
115.625 0.0542022
116.602 0.0513410
117.578 0.0487916
118.555 0.0465066
119.531 0.0444576
120.508 0.0426195
121.484 0.0409621
122.461 0.0394607
123.438 0.0381044
125.000 0.0361903
126.074 0.0350458
127.149 0.0339988
128.223 0.0330389
129.297 0.0321909
131.445 0.0307073
132.520 0.0300733
133.594 0.0295014
135.742 0.0284994
137.891 0.0276886
140.039 0.0270309
142.188 0.0264985
144.141 0.0261264
146.094 0.0258362
150.000 0.0254416
153.125 0.0253142
155.859 0.0253184
158.594 0.0254172
161.328 0.0256007
164.063 0.0258642
166.797 0.0262042
169.531 0.0266184
172.266 0.0271058
175.000 0.0276685
178.125 0.0284071
181.250 0.0292471
184.375 0.0301929
187.500 0.0312507
190.625 0.0324282
193.750 0.0337350
196.875 0.0351828
200.000 0.0367854
203.587 0.0388429
207.174 0.0411601
208.968 0.0424168
210.761 0.0437684
212.555 0.0451699
214.348 0.0467108
216.141 0.0482957
217.935 0.0500404
219.728 0.0518595
221.522 0.0538216
223.315 0.0558851
225.109 0.0581196
226.902 0.0605140
228.696 0.0630858
230.888 0.0665052
233.080 0.0702366
235.272 0.0743342
237.464 0.0788648
239.656 0.0838438
241.848 0.0893869
242.944 0.0923712
244.040 0.0955532
246.232 0.102412
248.025 0.108665
249.819 0.115564
251.612 0.123192
252.509 0.127269
253.406 0.131649
254.303 0.136182
255.199 0.141059
256.096 0.146148
256.993 0.151571
258.786 0.163376
260.580 0.176692
261.676 0.185696
262.772 0.195461
263.868 0.206056
264.964 0.217586
266.060 0.230147
267.156 0.243886
268.252 0.258947
269.348 0.275496
270.444 0.293770
271.540 0.313977
272.636 0.336425
273.184 0.348597
273.732 0.361475
274.280 0.375079
274.828 0.389497
275.376 0.404811
275.924 0.421047
276.472 0.438305
277.020 0.456712
277.568 0.476312
278.116 0.497215
278.863 0.528109
279.611 0.562056
280.358 0.599473
281.105 0.640790
281.479 0.662922
281.853 0.686399
282.600 0.737482
282.974 0.765240
283.347 0.794620
283.721 0.825758
284.094 0.858800
284.642 0.911044
285.190 0.968298
285.738 1.03123
286.286 1.10060
286.834 1.17735
287.382 1.26255
287.930 1.35749
288.204 1.40909
288.478 1.46373
288.790 1.52983
289.101 1.60057
289.413 1.67631
289.724 1.75743
290.035 1.84475
290.191 1.89097
290.347 1.93898
290.502 1.98887
290.658 2.04071
290.814 2.09463
290.969 2.15071
291.106 2.20201
291.243 2.25520
291.312 2.28253
291.380 2.31037
291.449 2.33872
291.517 2.36761
291.586 2.39703
291.654 2.42702
291.723 2.45757
291.791 2.48872
291.860 2.52046
291.928 2.55282
291.997 2.58581
292.065 2.61944
292.134 2.65375
292.202 2.68873
292.271 2.72442
292.339 2.76083
292.408 2.79798
292.476 2.83590
292.545 2.87460
292.579 2.89427
292.613 2.91410
292.645 2.93237
292.676 2.95075
292.707 2.96937
292.738 2.98810
292.782 3.01467
292.825 3.04160
292.869 3.06890
292.912 3.09656
292.968 3.13272
293.024 3.16946
293.081 3.20692
293.137 3.24498
293.193 3.28380
293.249 3.32326
293.305 3.36343
293.361 3.40435
293.429 3.45543
293.498 3.50767
293.566 3.56112
293.635 3.61581
293.703 3.67178
293.772 3.72907
293.840 3.78772
293.909 3.84777
293.977 3.90928
294.046 3.97228
294.114 4.03683
294.183 4.10297
294.251 4.17077
294.320 4.24027
294.388 4.31154
294.457 4.38464
294.525 4.45962
294.594 4.53655
294.662 4.61550
294.731 4.69655
294.799 4.77977
294.868 4.86524
294.936 4.95304
295.005 5.04325
295.086 5.15317
295.167 5.26661
295.248 5.38401
295.328 5.50527
295.409 5.63086
295.490 5.76065
295.571 5.89519
295.652 6.03433
295.721 6.15623
295.789 6.28170
295.858 6.41105
295.926 6.54445
295.995 6.68209
296.063 6.82413
296.132 6.97077
296.200 7.12221
296.269 7.27867
296.337 7.44037
296.406 7.60755
296.474 7.78045
296.543 7.95934
296.611 8.14451
296.680 8.33625
296.748 8.53487
296.817 8.74071
296.885 8.95412
296.954 9.17548
297.022 9.40519
297.091 9.64368
297.159 9.89139
297.228 10.1488
297.296 10.4165
297.365 10.6949
297.433 10.9847
297.502 11.2865
297.570 11.6009
297.639 11.9287
297.707 12.2707
297.776 12.6276
297.844 13.0005
297.907 13.3541
297.969 13.7224
298.031 14.1063
298.093 14.5058
298.156 14.9233
298.218 15.3591
298.280 15.8144
298.343 16.2894
298.405 16.7870
298.467 17.3078
298.529 17.8532
298.592 18.4239
298.654 19.0235
298.716 19.6518
298.778 20.3130
298.841 21.0071
298.909 21.8149
298.978 22.6691
299.046 23.5747
299.115 24.5359
299.183 25.5573
299.252 26.6441
299.320 27.8020
299.389 29.0371
299.457 30.3567
299.526 31.7684
299.594 33.2812
299.663 34.9049
299.731 36.6506
299.800 38.5307
299.868 40.5595
299.937 42.7529
300.005 45.1294
300.074 47.7098
300.142 50.5180
300.211 53.5815
300.279 56.9321
300.314 58.7291
300.348 60.6067
300.382 62.5816
300.416 64.6481
300.451 66.8249
300.485 69.1063
300.519 71.5132
300.553 74.0400
300.588 76.7104
300.622 79.5185
300.656 82.4915
300.690 85.6236
300.725 88.9460
300.759 92.4529
300.793 96.1801
300.827 100.123
300.862 104.321
300.896 108.772
300.930 113.523
300.964 118.569
300.999 123.968
301.033 129.716
301.076 137.624
301.120 146.249
301.164 155.673
301.207 165.988
301.251 177.295
301.294 189.708
301.316 196.368
301.338 203.351
301.360 210.676
301.381 218.323
301.416 231.180
301.450 245.046
301.484 259.997
301.519 276.062
301.553 293.412
301.587 312.021
301.621 332.067
301.656 353.497
301.690 376.486
301.724 400.937
301.758 427.010
301.793 454.548
301.827 483.676
301.861 514.159
301.895 545.975
301.929 578.978
301.971 620.753
302.013 663.586
302.097 750.155
302.139 792.521
302.181 833.237
302.223 871.461
302.265 906.263
302.294 928.372
302.323 948.073
302.353 965.250
302.382 979.561
302.412 990.911
302.441 999.068
302.471 1003.97
302.500 1005.53
302.530 1003.74
302.554 999.803
302.578 993.689
302.602 985.451
302.625 975.211
302.673 948.893
302.721 915.762
302.769 876.789
302.817 833.362
302.865 786.676
302.913 737.981
302.988 660.756
303.062 585.225
303.100 548.966
303.137 514.196
303.175 480.921
303.212 449.453
303.239 427.400
303.267 406.340
303.294 386.279
303.322 367.278
303.349 349.186
303.377 332.050
303.404 315.846
303.432 300.594
303.459 286.150
303.487 272.531
303.514 259.700
303.542 247.659
303.569 236.280
303.597 225.569
303.624 215.486
303.651 206.029
303.679 197.090
303.706 188.672
303.734 180.740
303.761 173.290
303.789 166.237
303.816 159.583
303.844 153.299
303.871 147.384
303.899 141.770
303.926 136.459
303.954 131.431
303.981 126.685
304.036 117.897
304.091 109.974
304.146 102.797
304.201 96.3018
304.256 90.3858
304.311 85.0028
304.366 80.0743
304.421 75.5673
304.476 71.4211
304.531 67.6119
304.583 64.2461
304.635 61.1302
304.688 58.2295
304.740 55.5346
304.793 53.0172
304.845 50.6708
304.898 48.4722
304.950 46.4169
305.003 44.4856
305.055 42.6753
305.108 40.9698
305.160 39.3672
305.212 37.8538
305.265 36.4285
305.317 35.0820
305.370 33.8087
305.425 32.5452
305.480 31.3533
305.589 29.1556
305.699 27.1809
305.809 25.4001
305.919 23.7885
306.029 22.3255
306.139 20.9933
306.249 19.7768
306.324 19.0064
306.399 18.2811
306.474 17.5967
306.549 16.9500
306.698 15.7596
306.848 14.6906
306.998 13.7260
307.148 12.8537
307.298 12.0615
307.447 11.3400
307.557 10.8510
307.667 10.3929
307.777 9.96323
307.887 9.55962
307.997 9.18004
308.107 8.82263
308.217 8.48569
308.327 8.16798
308.436 7.86751
308.546 7.58332
308.766 7.05928
308.986 6.58777
309.206 6.16218
309.425 5.77640
309.645 5.42578
309.865 5.10619
310.085 4.81420
310.305 4.54649
310.524 4.30066
310.744 4.07424
310.964 3.86551
311.164 3.68956
311.363 3.52555
311.563 3.37222
311.763 3.22856
311.963 3.09381
312.163 2.96732
312.362 2.84848
312.562 2.73669
312.762 2.63141
312.962 2.53215
313.162 2.43845
313.361 2.34991
313.761 2.18687
314.160 2.04048
314.380 1.96621
314.600 1.89600
315.040 1.76662
315.479 1.65032
315.919 1.54540
316.358 1.45042
316.798 1.36424
317.237 1.28579
317.677 1.21420
318.236 1.13181
318.796 1.05800
319.355 0.991674
319.914 0.931930
320.474 0.878195
321.033 0.829292
321.593 0.784846
322.152 0.744455
322.592 0.715291
323.031 0.688197
323.471 0.663007
323.910 0.639607
324.350 0.617857
324.789 0.597652
325.229 0.578903
325.668 0.561529
326.108 0.545444
326.547 0.530602
326.987 0.516945
327.427 0.504429
327.866 0.493019
328.306 0.482700
328.745 0.473448
329.185 0.465258
329.824 0.455261
330.463 0.447589
331.103 0.442362
331.742 0.439767
332.221 0.439662
332.701 0.441272
333.180 0.444984
333.660 0.450986
334.139 0.459601
334.619 0.471269
334.859 0.478423
335.098 0.486565
335.338 0.495796
335.578 0.506231
335.898 0.522254
336.217 0.541028
336.537 0.563006
336.857 0.588708
337.176 0.618792
337.336 0.635754
337.496 0.654189
337.656 0.674264
337.816 0.696116
337.975 0.719939
338.135 0.745945
338.355 0.785738
338.575 0.830890
338.795 0.882331
338.904 0.910756
339.014 0.941172
339.124 0.973821
339.234 1.00888
339.344 1.04658
339.454 1.08719
339.564 1.13098
339.674 1.17830
339.784 1.22952
339.893 1.28503
340.003 1.34544
340.113 1.41129
340.223 1.48324
340.333 1.56206
340.443 1.64864
340.553 1.74401
340.663 1.84939
340.772 1.96612
340.882 2.09612
340.992 2.24134
341.047 2.32050
341.102 2.40428
341.157 2.49322
341.212 2.58776
341.267 2.68856
341.322 2.79580
341.377 2.91047
341.432 3.03281
341.487 3.16403
341.542 3.30448
341.597 3.45536
341.651 3.61774
341.721 3.84341
341.791 4.09236
341.861 4.36882
341.931 4.67620
341.966 4.84342
342.001 5.02049
342.036 5.20821
342.071 5.40691
342.106 5.61873
342.141 5.84357
342.176 6.08398
342.211 6.33999
342.266 6.78038
342.321 7.27155
342.348 7.53970
342.376 7.82432
342.403 8.12692
342.431 8.44796
342.458 8.79168
342.486 9.15912
342.513 9.55275
342.541 9.97381
342.568 10.4287
342.596 10.9177
342.623 11.4490
342.650 12.0238
342.673 12.5338
342.695 13.0823
342.718 13.6736
342.740 14.3097
342.763 15.0021
342.785 15.7546
342.808 16.5748
342.830 17.4670
342.853 18.4493
342.875 19.5288
342.898 20.7186
342.920 22.0269
342.943 23.4819
342.965 25.0966
342.988 26.8918
343.010 28.8815
343.024 30.2188
343.038 31.6382
343.051 33.1672
343.065 34.7908
343.079 36.5403
343.093 38.3983
343.106 40.3853
343.120 42.5100
343.134 44.7986
343.147 47.2273
343.161 49.8413
343.175 52.6129
343.189 55.5929
343.202 58.7487
343.216 62.1118
343.230 65.6930
343.239 68.2819
343.249 70.9820
343.258 73.7968
343.267 76.6979
343.277 79.7511
343.286 82.9291
343.296 86.2353
343.305 89.6354
343.314 93.2059
343.324 96.9136
343.333 100.762
343.342 104.709
343.352 108.844
343.361 113.079
343.370 117.509
343.380 122.042
343.394 129.044
343.407 136.325
343.421 143.938
343.435 151.884
343.445 157.894
343.458 166.477
343.472 175.325
343.486 184.495
343.500 193.978
343.513 203.838
343.527 213.918
343.541 224.351
343.555 234.968
343.568 245.906
343.582 256.984
343.609 279.693
343.637 303.037
343.664 326.585
343.692 350.216
343.719 373.520
343.747 396.152
343.774 417.680
343.802 437.901
343.829 456.316
343.857 472.723
343.884 486.743
343.901 494.054
343.918 500.273
343.935 505.424
343.952 509.409
343.976 513.109
344.000 514.320
344.021 513.362
344.042 510.577
344.063 505.996
344.083 499.674
344.104 491.684
344.128 480.461
344.152 467.290
344.176 452.367
344.200 435.977
344.225 417.831
344.250 398.655
344.274 378.548
344.299 357.930
344.348 315.803
344.397 274.174
344.433 244.900
344.468 217.194
344.486 203.975
344.504 191.320
344.522 179.116
344.540 167.517
344.564 152.393
344.589 138.337
344.601 131.710
344.613 125.349
344.626 119.251
344.638 113.459
344.650 107.875
344.663 102.542
344.675 97.4555
344.687 92.6473
344.699 88.0325
344.712 83.6448
344.724 79.4772
344.736 75.5538
344.748 71.8027
344.761 68.2493
344.773 64.8860
344.785 61.7300
344.798 58.7219
344.810 55.8806
344.822 53.1983
344.834 50.6876
344.847 48.2997
344.859 46.0488
344.871 43.9276
344.883 41.9450
344.896 40.0619
344.908 38.3027
344.920 36.6322
344.932 35.0718
344.944 33.7191
344.955 32.4385
344.966 31.2261
344.977 30.0880
344.999 27.9785
345.022 26.0835
345.044 24.3716
345.066 22.8364
345.089 21.4506
345.111 20.1968
345.133 19.0551
345.156 18.0220
345.178 17.0803
345.200 16.2197
345.223 15.4275
345.245 14.7028
345.267 14.0349
345.290 13.4177
345.314 12.7892
345.339 12.2119
345.363 11.6757
345.388 11.1803
345.412 10.7177
345.437 10.2882
345.462 9.88520
345.486 9.50933
345.511 9.15520
345.535 8.82363
345.560 8.51012
345.584 8.21560
345.633 7.67305
345.682 7.18626
345.718 6.86193
345.754 6.56130
345.790 6.28124
345.825 6.01982
345.861 5.77535
345.897 5.54633
345.932 5.33143
345.968 5.12948
346.004 4.93889
346.040 4.75979
346.075 4.59077
346.111 4.43108
346.182 4.13694
346.254 3.87256
346.303 3.70560
346.352 3.55007
346.401 3.40463
346.450 3.26842
346.499 3.14065
346.549 3.02063
346.598 2.90774
346.647 2.80141
346.696 2.70114
346.745 2.60646
346.843 2.43230
346.941 2.27602
347.040 2.13523
347.098 2.05840
347.156 1.98605
347.272 1.85299
347.388 1.73379
347.504 1.62666
347.620 1.52985
347.736 1.44220
347.852 1.36242
347.968 1.28970
348.066 1.23294
348.165 1.18024
348.263 1.13117
348.361 1.08540
348.459 1.04265
348.557 1.00265
348.656 0.965171
348.754 0.930002
348.852 0.896955
348.950 0.865861
349.147 0.808931
349.343 0.758156
349.539 0.712667
349.754 0.668217
349.968 0.628429
350.182 0.592662
350.396 0.560398
350.611 0.531170
350.825 0.504624
351.039 0.480429
351.254 0.458295
351.450 0.439578
351.646 0.422235
351.843 0.406130
352.039 0.391149
352.236 0.377188
352.432 0.364153
352.628 0.351961
352.825 0.340538
353.218 0.319736
353.611 0.301310
354.003 0.284892
354.396 0.270188
354.682 0.260428
354.968 0.251368
355.253 0.242938
355.539 0.235079
355.825 0.227747
356.110 0.220904
356.682 0.208437
357.253 0.197353
357.825 0.187479
358.396 0.178634
358.967 0.170673
359.682 0.161779
360.396 0.153884
361.110 0.146835
361.824 0.140509
362.539 0.134806
363.253 0.129644
363.967 0.124956
364.681 0.120705
365.467 0.116465
366.253 0.112579
367.038 0.109031
367.824 0.105818
368.610 0.102885
369.395 0.100194
370.181 0.0977501
370.966 0.0955255
371.752 0.0934870
372.538 0.0916404
374.109 0.0884649
375.680 0.0859175
377.252 0.0839418
378.395 0.0828567
379.537 0.0820583
380.680 0.0815460
381.823 0.0813243
383.109 0.0814347
384.394 0.0819470
385.680 0.0828902
386.965 0.0843037
388.251 0.0862410
389.537 0.0887727
390.822 0.0919924
392.108 0.0960002
392.894 0.0989021
393.679 0.102222
394.465 0.105993
395.251 0.110275
396.036 0.115141
396.822 0.120676
397.608 0.126985
398.393 0.134192
399.072 0.141259
399.750 0.149231
400.429 0.158253
400.768 0.163212
401.107 0.168502
401.447 0.174153
401.786 0.180195
402.125 0.186663
402.464 0.193588
402.804 0.201002
403.143 0.208949
403.482 0.217527
403.821 0.226792
404.214 0.238460
404.607 0.251244
405.000 0.265294
405.393 0.280771
405.786 0.297879
406.179 0.316841
406.571 0.337938
406.964 0.361496
407.339 0.386644
407.527 0.400320
407.714 0.414807
407.902 0.430170
408.089 0.446481
408.277 0.463819
408.464 0.482262
408.652 0.501926
408.839 0.522909
409.027 0.545330
409.214 0.569319
409.402 0.595017
409.589 0.622580
409.777 0.652198
409.964 0.684081
410.160 0.720253
410.357 0.759533
410.553 0.802297
410.750 0.848957
410.946 0.899993
411.142 0.955966
411.339 1.01754
411.535 1.08548
411.732 1.16074
411.928 1.24433
412.026 1.28965
412.125 1.33757
412.223 1.38829
412.321 1.44202
412.419 1.49903
412.517 1.55957
412.616 1.62394
412.714 1.69248
412.812 1.76555
412.910 1.84357
413.008 1.92698
413.107 2.01630
413.232 2.13943
413.357 2.27443
413.482 2.42287
413.607 2.58666
413.732 2.76803
413.857 2.96963
413.919 3.07899
413.982 3.19464
414.044 3.31707
414.106 3.44662
414.205 3.66700
414.303 3.90944
414.401 4.17729
414.499 4.47429
414.598 4.80489
414.647 4.98442
414.696 5.17444
414.745 5.37581
414.794 5.58944
414.843 5.81639
414.892 6.05781
414.935 6.27944
414.977 6.51322
415.019 6.76067
415.062 7.02290
415.104 7.30115
415.147 7.59679
415.189 7.91135
415.231 8.24654
415.274 8.60514
415.316 8.98763
415.359 9.39725
415.401 9.83675
415.444 10.3093
415.486 10.8184
415.507 11.0879
415.528 11.3682
415.550 11.6598
415.571 11.9634
415.598 12.3655
415.624 12.7896
415.651 13.2373
415.678 13.7087
415.705 14.2097
415.718 14.4713
415.731 14.7407
415.745 15.0184
415.758 15.3046
415.772 15.5998
415.785 15.9021
415.805 16.3774
415.825 16.8763
415.845 17.4006
415.865 17.9523
415.885 18.5335
415.896 18.8374
415.906 19.1465
415.916 19.4673
415.926 19.7938
415.936 20.1329
415.946 20.4783
415.961 21.0409
415.977 21.6260
415.993 22.2387
416.008 22.8809
416.024 23.5547
416.032 23.9042
416.039 24.2624
416.047 24.6296
416.055 25.0062
416.063 25.3924
416.071 25.7887
416.083 26.4348
416.095 27.1083
416.108 27.8105
416.120 28.5433
416.132 29.3083
416.144 30.1075
416.157 30.9427
416.169 31.8089
416.181 32.7224
416.194 33.6787
416.206 34.6802
416.218 35.7209
416.230 36.8205
416.243 37.9737
416.255 39.1835
416.267 40.4427
416.279 41.7752
416.292 43.1747
416.304 44.6447
416.316 46.1765
416.329 47.7993
416.341 49.5051
416.353 51.2983
416.365 53.1681
416.378 55.1498
416.390 57.2335
416.402 59.4246
416.414 61.7091
416.427 64.1301
416.439 66.6750
416.451 69.3498
416.464 72.1370
416.476 75.0884
416.488 78.1880
416.500 81.4422
416.513 84.8289
416.525 88.4102
416.537 92.1655
416.550 96.1013
416.562 100.190
416.574 104.504
416.586 109.019
416.599 113.739
416.611 118.631
416.623 123.780
416.635 129.152
416.648 134.754
416.660 140.541
416.672 146.613
416.685 152.929
416.697 159.491
416.709 166.303
416.721 173.367
416.734 180.686
416.746 188.261
416.758 196.028
416.771 204.114
416.783 212.455
416.807 229.822
416.832 248.167
416.856 267.447
416.881 287.686
416.905 308.641
416.930 330.386
416.955 352.627
416.979 375.410
417.004 398.397
417.053 444.657
417.102 489.875
417.151 532.354
417.176 552.056
417.200 570.340
417.225 587.080
417.249 602.083
417.277 617.063
417.306 629.184
417.334 638.303
417.362 644.266
417.381 646.438
417.400 647.139
417.419 646.373
417.450 642.002
417.480 633.846
417.511 622.067
417.542 606.951
417.569 590.540
417.597 571.912
417.625 551.214
417.653 528.894
417.681 504.929
417.709 479.971
417.764 428.005
417.820 375.526
417.876 324.547
417.901 302.306
417.927 280.849
417.952 260.278
417.978 240.672
418.003 222.089
418.028 204.571
418.054 188.138
418.079 172.855
418.107 157.191
418.121 149.844
418.135 142.863
418.149 136.142
418.163 129.769
418.177 123.646
418.191 117.853
418.205 112.298
418.219 107.015
418.233 101.995
418.247 97.2614
418.261 92.7373
418.275 88.4778
418.289 84.4119
418.303 80.5884
418.319 76.3127
418.336 72.3078
418.352 68.5588
418.369 65.0508
418.385 61.7694
418.402 58.7009
418.418 55.8319
418.435 53.1495
418.451 50.6416
418.468 48.2966
418.484 46.1033
418.501 44.0513
418.517 42.1309
418.534 40.3326
418.550 38.6479
418.567 37.0686
418.595 34.6084
418.622 32.4036
418.650 30.4154
418.678 28.6177
418.706 26.9822
418.734 25.5004
418.762 24.1489
418.790 22.9126
418.818 21.7745
418.846 20.7311
418.874 19.7683
418.902 18.8775
418.930 18.0513
418.957 17.2830
418.985 16.5669
419.013 15.8981
419.041 15.2699
419.069 14.6831
419.097 14.1317
419.125 13.6129
419.153 13.1222
419.181 12.6608
419.237 11.8118
419.293 11.0481
419.348 10.3605
419.404 9.73653
419.460 9.17033
419.508 8.72053
419.557 8.30492
419.605 7.91845
419.653 7.55983
419.701 7.22501
419.750 6.91314
419.798 6.62152
419.846 6.34838
419.894 6.09166
419.942 5.85100
419.991 5.62460
420.039 5.41134
420.087 5.20980
420.135 5.01989
420.232 4.67045
420.288 4.48454
420.343 4.30999
420.399 4.14531
420.455 3.99031
420.511 3.84371
420.567 3.70540
420.679 3.45037
420.790 3.22113
420.902 3.01429
421.014 2.82701
421.125 2.65702
421.196 2.55670
421.267 2.46204
421.339 2.37261
421.410 2.28816
421.552 2.13222
421.694 1.99203
421.836 1.86532
421.978 1.75054
422.120 1.64608
422.262 1.55085
422.374 1.48172
422.486 1.41717
422.598 1.35679
422.709 1.30024
422.821 1.24720
422.933 1.19739
423.044 1.15054
423.156 1.10647
423.268 1.06489
423.379 1.02565
423.491 0.988572
423.603 0.953502
423.826 0.888828
424.049 0.830652
424.273 0.778083
424.496 0.730444
424.720 0.687135
424.943 0.647645
425.166 0.611538
425.390 0.578442
425.613 0.548040
425.837 0.520071
426.050 0.495378
426.263 0.472459
426.476 0.451120
426.689 0.431218
426.903 0.412626
427.116 0.395255
427.329 0.378994
427.542 0.363750
427.756 0.349434
427.969 0.335984
428.182 0.323325
428.395 0.311397
428.608 0.300143
428.822 0.289514
429.248 0.269952
429.695 0.251597
430.142 0.235141
430.588 0.220322
431.035 0.206934
431.482 0.194794
431.929 0.183754
432.375 0.173680
432.822 0.164466
433.167 0.157870
433.513 0.151692
433.858 0.145897
434.203 0.140462
434.548 0.135363
434.893 0.130553
435.584 0.121700
436.274 0.113783
436.965 0.106679
437.655 0.100279
438.346 0.0944907
438.792 0.0910345
439.239 0.0877839
439.686 0.0847227
440.133 0.0818371
441.026 0.0765368
441.920 0.0717912
442.813 0.0675233
443.707 0.0636699
444.600 0.0601776
445.494 0.0570012
446.306 0.0543557
447.118 0.0519152
447.931 0.0496584
448.743 0.0475755
450.042 0.0445394
451.342 0.0418184
452.642 0.0393760
453.941 0.0371739
455.241 0.0351800
456.541 0.0333678
457.191 0.0325261
457.515 0.0321182
457.840 0.0318582
458.003 0.0323517
458.084 0.0332781
458.165 0.0352562
458.247 0.0391493
458.287 0.0422094
458.328 0.0462993
458.368 0.0516859
458.409 0.0586784
458.450 0.0676280
458.490 0.0789228
458.531 0.0930186
458.571 0.110282
458.612 0.131183
458.653 0.156140
458.693 0.185536
458.734 0.219689
458.774 0.258830
458.815 0.303079
458.856 0.352550
458.896 0.406841
458.937 0.465751
458.978 0.528808
459.018 0.595389
459.059 0.664740
459.140 0.808222
459.140 1.58605
492.944 1.50076
526.747 1.42528
560.551 1.35794
594.355 1.29746
628.159 1.24281
661.963 1.19314
695.766 1.14779
729.570 1.10619
763.374 1.06789
797.178 1.03249
830.981 0.999656
864.785 0.969119
932.393 0.913990
1000.00 0.865540
1070.31 0.832822
1140.63 0.803308
1210.94 0.776515
1281.25 0.752055
1351.56 0.729611
1421.88 0.708927
1562.50 0.672008
1703.13 0.639956
1843.75 0.611802
1984.38 0.586825
2125.00 0.564477
2265.63 0.544333
2406.25 0.526058
2546.88 0.509384
2687.50 0.494094
2828.13 0.480008
2968.75 0.466978
3250.00 0.443614
3531.25 0.423218
3812.50 0.405220
4093.75 0.389190
4375.00 0.374798
4656.25 0.361787
4937.50 0.349952
5218.75 0.339129
5500.00 0.329183
5781.25 0.320003
6062.50 0.311498
6625.00 0.296213
7187.50 0.282835
7750.00 0.271004
8312.50 0.260447
8875.00 0.250954
9437.50 0.242359
10000.0 0.234531
10703.1 0.228732
11406.3 0.223432
12812.5 0.214064
14218.8 0.206005
15625.0 0.198970
17031.3 0.192751
18437.5 0.187199
19843.8 0.182197
21250.0 0.177658
24062.5 0.169705
26875.0 0.162932
29687.5 0.157066
32500.0 0.151914
35312.5 0.147339
38125.0 0.143237
40937.5 0.139529
43750.0 0.136155
49375.0 0.130220
55000.0 0.125145
60625.0 0.120735
66250.0 0.116852
71875.0 0.113395
77500.0 0.110290
83125.0 0.107480
88750.0 0.104918
100000 0.100404
106250 0.0975534
112500 0.0949399
125000 0.0903045
137500 0.0863065
150000 0.0828115
162500 0.0797214
175000 0.0769634
187500 0.0744816
200000 0.0722325
218750 0.0692217
237500 0.0665693
256250 0.0642090
275000 0.0620905
293750 0.0601750
312500 0.0584318
331250 0.0568364
350000 0.0553689
381949 0.0531180
413898 0.0511289
413898 0.0511289
413900 0.0511288
420000 0.0507746
425000 0.0504899
440000 0.0496647
460000 0.0486269
500000 0.0467382
523385 0.0452742
546770 0.0439171
593539 0.0414778
600000 0.0411663
646410 0.0410933
649020 0.0410894
692820 0.0410256
746410 0.0409529
800000 0.0408853
850000 0.0416820
900000 0.0424473
1.00000E+06 0.0438950
1.05380E+06 0.0419638
1.05384E+06 0.0419625
1.05384E+06 0.0419624
1.05384E+06 0.0419623
1.07836E+06 0.0411419
1.09320E+06 0.0406620
1.09324E+06 0.0406607
1.09324E+06 0.0406606
1.09324E+06 0.0406606
1.10288E+06 0.0403553
1.13243E+06 0.0394495
1.15192E+06 0.0388758
1.17162E+06 0.0383139
1.25000E+06 0.0362418
1.37500E+06 0.0357706
1.40864E+06 0.0356520
1.40864E+06 0.0356520
1.40870E+06 0.0356518
1.42663E+06 0.0355900
1.42663E+06 0.0355899
1.43010E+06 0.0355781
1.43356E+06 0.0355663
1.44049E+06 0.0355427
1.45435E+06 0.0354960
1.46331E+06 0.0354661
1.48166E+06 0.0354055
1.50000E+06 0.0353457
1.55639E+06 0.0344340
1.55639E+06 0.0344339
1.56041E+06 0.0343712
1.56442E+06 0.0343087
1.57245E+06 0.0341846
1.58851E+06 0.0339395
1.60456E+06 0.0336986
1.62062E+06 0.0334618
1.62644E+06 0.0333770
1.63226E+06 0.0332927
1.64390E+06 0.0331256
1.64393E+06 0.0331252
1.64394E+06 0.0331251
1.64394E+06 0.0331251
1.65506E+06 0.0329673
1.66618E+06 0.0328113
1.68843E+06 0.0325045
1.69188E+06 0.0324576
1.69190E+06 0.0324573
1.71116E+06 0.0321982
1.73041E+06 0.0319441
1.73294E+06 0.0319111
1.75000E+06 0.0316904
1.76892E+06 0.0314500
1.76897E+06 0.0314494
1.77559E+06 0.0313663
1.78222E+06 0.0312837
1.79547E+06 0.0311200
1.80871E+06 0.0309585
1.82196E+06 0.0307989
1.82505E+06 0.0307620
1.82505E+06 0.0307619
1.82925E+06 0.0307119
1.83345E+06 0.0306621
1.84184E+06 0.0305631
1.84420E+06 0.0305354
1.84425E+06 0.0305348
1.84425E+06 0.0305348
1.84595E+06 0.0305149
1.85661E+06 0.0303907
1.85661E+06 0.0303907
1.86244E+06 0.0303233
1.86827E+06 0.0302563
1.86827E+06 0.0302563
1.87573E+06 0.0301711
1.88318E+06 0.0300865
1.89608E+06 0.0299414
1.90898E+06 0.0297979
1.91109E+06 0.0297746
1.91526E+06 0.0297287
1.91943E+06 0.0296830
1.91943E+06 0.0296830
1.92054E+06 0.0296708
1.92074E+06 0.0296686
1.92212E+06 0.0296535
1.93186E+06 0.0295476
1.94159E+06 0.0294427
1.96106E+06 0.0292353
1.98053E+06 0.0290315
2.00000E+06 0.0288311
2.01563E+06 0.0283624
2.03125E+06 0.0279048
2.06250E+06 0.0270217
2.09375E+06 0.0261792
2.12500E+06 0.0253749
2.15625E+06 0.0246065
2.18750E+06 0.0238720
2.25000E+06 0.0224967
2.31250E+06 0.0212352
2.37500E+06 0.0200753
2.43750E+06 0.0190064
2.50000E+06 0.0180194
2.53125E+06 0.0175572
2.56250E+06 0.0171122
2.59375E+06 0.0166838
2.62500E+06 0.0162710
2.68750E+06 0.0154895
2.75000E+06 0.0147622
2.81250E+06 0.0140842
2.87500E+06 0.0134513
2.93750E+06 0.0128596
3.00000E+06 0.0123055
3.06250E+06 0.0116520
3.12500E+06 0.0110453
3.18750E+06 0.0104814
3.25000E+06 0.00995630
3.31250E+06 0.00946682
3.37500E+06 0.00900989
3.43750E+06 0.00858280
3.50000E+06 0.00818311
3.56250E+06 0.00780862
3.62500E+06 0.00745735
3.68750E+06 0.00712748
3.75000E+06 0.00681739
3.81250E+06 0.00652558
3.87500E+06 0.00625071
3.93750E+06 0.00599154
4.00000E+06 0.00574695
4.05647E+06 0.00545873
4.11293E+06 0.00518866
4.16940E+06 0.00493536
4.22587E+06 0.00469759
4.28233E+06 0.00447421
4.33880E+06 0.00426417
4.39526E+06 0.00406652
4.45173E+06 0.00388038
4.50000E+06 0.00372977
4.55043E+06 0.00358027
4.60087E+06 0.00343831
4.65130E+06 0.00330344
4.70174E+06 0.00317523
4.80260E+06 0.00293724
4.90347E+06 0.00272148
4.98116E+06 0.00256890
5.00000E+06 0.00253355
5.06250E+06 0.00238397
5.12500E+06 0.00224490
5.18750E+06 0.00211548
5.25000E+06 0.00199495
5.31250E+06 0.00188258
5.37500E+06 0.00177775
5.43750E+06 0.00167987
5.50000E+06 0.00158841
5.56250E+06 0.00150288
5.62500E+06 0.00142283
5.68750E+06 0.00134786
5.75000E+06 0.00127760
5.81250E+06 0.00121170
5.87500E+06 0.00114985
5.93750E+06 0.00109176
6.00000E+06 0.00103717
6.07121E+06 0.000964096
6.14243E+06 0.000896935
6.21364E+06 0.000835146
6.28485E+06 0.000778248
6.35606E+06 0.000725802
6.42728E+06 0.000677417
6.49849E+06 0.000632738
6.56970E+06 0.000591447
6.62349E+06 0.000562326
6.67728E+06 0.000534857
6.73106E+06 0.000508935
6.78485E+06 0.000484461
6.83864E+06 0.000461342
6.89243E+06 0.000439496
6.94621E+06 0.000418842
7.00000E+06 0.000399307
7.06971E+06 0.000375544
7.13941E+06 0.000353408
7.19320E+06 0.000337359
7.21711E+06 0.000330496
7.24698E+06 0.000322150
7.30077E+06 0.000307732
7.35456E+06 0.000294059
7.40834E+06 0.000281085
7.46213E+06 0.000268772
7.51591E+06 0.000257081
7.56970E+06 0.000245977
7.62349E+06 0.000235425
7.67728E+06 0.000225396
7.73106E+06 0.000215860
7.78485E+06 0.000206789
7.83864E+06 0.000198157
7.89243E+06 0.000189942
7.94621E+06 0.000182119
8.00000E+06 0.000174668
8.04287E+06 0.000165419
8.08575E+06 0.000156705
8.12862E+06 0.000148492
8.17149E+06 0.000140750
8.21436E+06 0.000133449
8.25724E+06 0.000126562
8.30011E+06 0.000120063
8.34298E+06 0.000113928
8.34298E+06 0.000113928
8.39477E+06 0.000106974
8.44655E+06 0.000100483
8.47767E+06 9.67903E-05
8.49833E+06 9.44217E-05
8.55011E+06 8.87600E-05
8.60189E+06 8.34688E-05
8.65367E+06 7.85221E-05
8.70545E+06 7.38955E-05
8.75724E+06 6.95665E-05
8.80902E+06 6.55144E-05
8.86080E+06 6.17200E-05
8.91258E+06 5.81656E-05
8.96436E+06 5.48347E-05
9.01615E+06 5.17121E-05
9.06793E+06 4.87837E-05
9.11971E+06 4.60365E-05
9.17149E+06 4.34582E-05
9.22327E+06 4.10376E-05
9.27505E+06 3.87643E-05
9.32684E+06 3.66285E-05
9.37862E+06 3.46213E-05
9.43040E+06 3.27342E-05
9.48218E+06 3.09595E-05
9.53396E+06 2.92898E-05
9.58575E+06 2.77186E-05
9.63753E+06 2.62395E-05
9.68931E+06 2.48465E-05
9.74109E+06 2.35344E-05
9.79287E+06 2.22979E-05
9.84466E+06 2.11325E-05
9.89644E+06 2.00335E-05
9.94822E+06 1.89971E-05
1.00000E+07 1.80192E-05
1.00313E+07 1.72304E-05
1.00625E+07 1.64783E-05
1.00938E+07 1.57613E-05
1.01250E+07 1.50776E-05
1.01563E+07 1.44255E-05
1.01875E+07 1.38034E-05
1.02188E+07 1.32100E-05
1.02500E+07 1.26438E-05
1.02813E+07 1.21035E-05
1.03125E+07 1.15877E-05
1.03438E+07 1.10955E-05
1.03750E+07 1.06255E-05
1.04375E+07 9.74824E-06
1.05000E+07 8.94800E-06
1.05625E+07 8.21764E-06
1.06250E+07 7.55068E-06
1.06875E+07 6.94130E-06
1.07500E+07 6.38423E-06
1.08125E+07 5.87472E-06
1.08750E+07 5.40846E-06
1.09375E+07 4.98157E-06
1.10000E+07 4.59052E-06
1.10625E+07 4.23213E-06
1.11250E+07 3.90351E-06
1.11875E+07 3.60203E-06
1.12500E+07 3.32533E-06
1.13125E+07 3.07124E-06
1.13750E+07 2.83781E-06
1.14375E+07 2.62326E-06
1.15000E+07 2.42597E-06
1.15625E+07 2.24447E-06
1.16250E+07 2.07741E-06
1.16875E+07 1.92359E-06
1.17500E+07 1.78189E-06
1.18125E+07 1.65130E-06
1.18750E+07 1.53089E-06
1.19375E+07 1.41983E-06
1.20000E+07 1.31734E-06
1.20625E+07 1.21537E-06
1.21250E+07 1.12177E-06
1.21875E+07 1.03579E-06
1.22500E+07 9.56802E-07
1.23125E+07 8.84190E-07
1.23750E+07 8.17416E-07
1.24375E+07 7.55984E-07
1.25000E+07 6.99442E-07
1.25625E+07 6.47380E-07
1.26250E+07 5.99424E-07
1.26875E+07 5.55231E-07
1.27500E+07 5.14489E-07
1.28125E+07 4.76915E-07
1.28750E+07 4.42248E-07
1.29375E+07 4.10251E-07
1.30000E+07 3.80707E-07
1.30625E+07 3.53417E-07
1.31250E+07 3.28200E-07
1.31875E+07 3.04889E-07
1.32500E+07 2.83333E-07
1.33125E+07 2.63391E-07
1.33750E+07 2.44937E-07
1.34375E+07 2.27853E-07
1.35000E+07 2.12032E-07
1.35625E+07 1.97374E-07
1.36250E+07 1.83791E-07
1.36875E+07 1.71198E-07
1.37500E+07 1.59520E-07
1.38125E+07 1.48686E-07
1.38750E+07 1.38631E-07
1.39375E+07 1.29298E-07
1.40000E+07 1.20630E-07
1.40425E+07 1.15400E-07
1.40850E+07 1.10411E-07
1.41274E+07 1.05652E-07
1.41699E+07 1.01112E-07
1.42124E+07 9.67792E-08
1.42549E+07 9.26444E-08
1.42974E+07 8.86977E-08
1.43398E+07 8.49310E-08
1.44248E+07 7.78991E-08
1.45097E+07 7.14863E-08
1.45947E+07 6.56337E-08
1.46797E+07 6.02908E-08
1.47646E+07 5.54094E-08
1.48496E+07 5.09479E-08
1.49345E+07 4.68680E-08
1.50195E+07 4.31357E-08
1.51044E+07 3.97189E-08
1.51894E+07 3.65899E-08
1.52744E+07 3.37226E-08
1.53593E+07 3.10943E-08
1.54394E+07 2.88161E-08
1.55195E+07 2.67153E-08
1.55996E+07 2.47774E-08
1.56797E+07 2.29891E-08
1.57597E+07 2.13378E-08
1.57874E+07 2.07973E-08
1.58398E+07 1.98126E-08
1.59199E+07 1.84033E-08
1.60000E+07 1.71007E-08
1.61250E+07 1.59318E-08
1.62500E+07 1.48510E-08
1.63750E+07 1.38509E-08
1.65000E+07 1.29250E-08
1.66250E+07 1.20673E-08
1.67500E+07 1.12724E-08
1.68750E+07 1.05351E-08
1.70000E+07 9.85096E-09
1.71250E+07 9.21579E-09
1.72500E+07 8.62575E-09
1.73750E+07 8.07735E-09
1.75000E+07 7.56738E-09
1.76250E+07 7.09289E-09
1.77500E+07 6.65120E-09
1.78750E+07 6.23983E-09
1.80000E+07 5.85651E-09
1.81250E+07 5.61318E-09
1.82500E+07 5.38154E-09
1.83750E+07 5.16093E-09
1.85000E+07 4.95078E-09
1.87500E+07 4.55960E-09
1.90000E+07 4.20392E-09
1.92500E+07 3.88009E-09
1.95000E+07 3.58492E-09
1.97500E+07 3.31554E-09
2.00000E+07 3.06942E-09
2.00000E+07 0.00000
2.10000E+07 0.00000
2.18159E+07 0.00000
2.20000E+07 0.00000
2.20287E+07 0.00000
2.30000E+07 0.00000
2.32132E+07 0.00000
2.40000E+07 0.00000
2.42460E+07 0.00000
2.50000E+07 0.00000
2.52393E+07 0.00000
2.60000E+07 0.00000
2.61673E+07 0.00000
2.70000E+07 0.00000
2.80000E+07 0.00000
2.85029E+07 0.00000
2.85635E+07 0.00000
2.90000E+07 0.00000
3.00000E+07 0.00000
3.09297E+07 0.00000
3.10000E+07 0.00000
3.11675E+07 0.00000
3.20000E+07 0.00000
3.30000E+07 0.00000
3.35427E+07 0.00000
3.40000E+07 0.00000
3.44094E+07 0.00000
3.50000E+07 0.00000
3.60000E+07 0.00000
3.70000E+07 0.00000
3.74411E+07 0.00000
3.74597E+07 0.00000
3.75464E+07 0.00000
3.80000E+07 0.00000
3.90000E+07 0.00000
4.00000E+07 0.00000
4.02019E+07 0.00000
4.05957E+07 0.00000
4.10000E+07 0.00000
4.11027E+07 0.00000
4.20000E+07 0.00000
4.30000E+07 0.00000
4.40000E+07 0.00000
4.42294E+07 0.00000
4.45703E+07 0.00000
4.50000E+07 0.00000
4.60000E+07 0.00000
4.70000E+07 0.00000
4.77976E+07 0.00000
4.80000E+07 0.00000
4.90000E+07 0.00000
4.97911E+07 0.00000
5.00000E+07 0.00000
5.10000E+07 0.00000
5.20000E+07 0.00000
5.28676E+07 0.00000
5.30000E+07 0.00000
5.36689E+07 0.00000
5.40000E+07 0.00000
5.50000E+07 0.00000
5.60000E+07 0.00000
5.64402E+07 0.00000
5.70000E+07 0.00000
5.70781E+07 0.00000
5.80000E+07 0.00000
5.90000E+07 0.00000
6.00000E+07 0.00000
6.04916E+07 0.00000
6.08436E+07 0.00000
6.10000E+07 0.00000
6.20000E+07 0.00000
6.30000E+07 0.00000
6.40000E+07 0.00000
6.47714E+07 0.00000
6.50000E+07 0.00000
6.60000E+07 0.00000
6.70000E+07 0.00000
6.80000E+07 0.00000
6.90000E+07 0.00000
7.00000E+07 0.00000
7.01100E+07 0.00000
7.10000E+07 0.00000
7.20000E+07 0.00000
7.30000E+07 0.00000
7.40000E+07 0.00000
7.46368E+07 0.00000
7.50000E+07 0.00000
7.60000E+07 0.00000
7.70000E+07 0.00000
7.77310E+07 0.00000
7.80000E+07 0.00000
7.90000E+07 0.00000
8.00000E+07 0.00000
8.10000E+07 0.00000
8.20000E+07 0.00000
8.22749E+07 0.00000
8.30000E+07 0.00000
8.40000E+07 0.00000
8.50000E+07 0.00000
8.60000E+07 0.00000
8.70000E+07 0.00000
8.80000E+07 0.00000
8.90000E+07 0.00000
9.00000E+07 0.00000
9.10000E+07 0.00000
9.20000E+07 0.00000
9.30000E+07 0.00000
9.40000E+07 0.00000
9.50000E+07 0.00000
9.60000E+07 0.00000
9.70000E+07 0.00000
9.80000E+07 0.00000
9.90000E+07 0.00000
1.00000E+08 0.00000
1.02000E+08 0.00000
1.04000E+08 0.00000
1.06000E+08 0.00000
1.08000E+08 0.00000
1.10000E+08 0.00000
1.12000E+08 0.00000
1.14000E+08 0.00000
1.16000E+08 0.00000
1.18000E+08 0.00000
1.20000E+08 0.00000
1.22000E+08 0.00000
1.24000E+08 0.00000
1.26000E+08 0.00000
1.28000E+08 0.00000
1.30000E+08 0.00000
1.32000E+08 0.00000
1.34000E+08 0.00000
1.36000E+08 0.00000
1.38000E+08 0.00000
1.40000E+08 0.00000
1.42000E+08 0.00000
1.44000E+08 0.00000
1.46000E+08 0.00000
1.48000E+08 0.00000
1.50000E+08 0.00000
