Hg-201(n,g) ENDFB-8.0
Energy(eV) XS(b)
1.00000E-05 246.730
1.03125E-05 242.963
1.06250E-05 239.363
1.09375E-05 235.919
1.12500E-05 232.619
1.15625E-05 229.454
1.18750E-05 226.415
1.21875E-05 223.493
1.25000E-05 220.682
1.28125E-05 217.974
1.31250E-05 215.363
1.34375E-05 212.845
1.37500E-05 210.412
1.43750E-05 205.787
1.50000E-05 201.454
1.56250E-05 197.384
1.62500E-05 193.551
1.68750E-05 189.933
1.75000E-05 186.510
1.81250E-05 183.266
1.87500E-05 180.186
1.93750E-05 177.256
2.00000E-05 174.464
2.09375E-05 170.514
2.18750E-05 166.820
2.28125E-05 163.356
2.37500E-05 160.099
2.46875E-05 157.030
2.56250E-05 154.131
2.65625E-05 151.387
2.75000E-05 148.784
2.84375E-05 146.311
2.93750E-05 143.957
3.03125E-05 141.713
3.12500E-05 139.571
3.21875E-05 137.524
3.31250E-05 135.564
3.40625E-05 133.685
3.50000E-05 131.883
3.59375E-05 130.151
3.68750E-05 128.486
3.78125E-05 126.883
3.87500E-05 125.339
3.96875E-05 123.850
4.06250E-05 122.412
4.25000E-05 119.682
4.43750E-05 117.126
4.62500E-05 114.727
4.81250E-05 112.470
5.00000E-05 110.341
5.15625E-05 108.656
5.31250E-05 107.046
5.46875E-05 105.506
5.62500E-05 104.030
5.78125E-05 102.615
5.93750E-05 101.256
6.09375E-05 99.9491
6.25000E-05 98.6918
6.40625E-05 97.4809
6.56250E-05 96.3134
6.71875E-05 95.1869
6.87500E-05 94.0990
7.18750E-05 92.0306
7.50000E-05 90.0929
7.81250E-05 88.2726
8.12500E-05 86.5584
8.43750E-05 84.9404
8.75000E-05 83.4098
9.06250E-05 81.9591
9.37500E-05 80.5815
9.68750E-05 79.2711
0.000100000 78.0227
0.000103125 76.8314
0.000106250 75.6931
0.000109375 74.6039
0.000112500 73.5605
0.000115625 72.5596
0.000118750 71.5985
0.000121875 70.6746
0.000125000 69.7856
0.000128125 68.9293
0.000131250 68.1037
0.000134375 67.3072
0.000137500 66.5379
0.000143750 65.0754
0.000150000 63.7052
0.000156250 62.4181
0.000162500 61.2059
0.000168750 60.0618
0.000175000 58.9795
0.000181250 57.9537
0.000187500 56.9796
0.000193750 56.0530
0.000200000 55.1702
0.000209375 53.9209
0.000218750 52.7528
0.000228125 51.6575
0.000237500 50.6276
0.000246875 49.6570
0.000256250 48.7402
0.000265625 47.8723
0.000275000 47.0492
0.000284375 46.2672
0.000293750 45.5229
0.000303125 44.8134
0.000312500 44.1361
0.000321875 43.4885
0.000331250 42.8687
0.000340625 42.2746
0.000350000 41.7046
0.000359375 41.1570
0.000368750 40.6305
0.000378125 40.1236
0.000387500 39.6353
0.000396875 39.1643
0.000406250 38.7098
0.000425000 37.8463
0.000443750 37.0380
0.000462500 36.2795
0.000481250 35.5657
0.000500000 34.8925
0.000515625 34.3597
0.000531250 33.8506
0.000546875 33.3635
0.000562500 32.8969
0.000578125 32.4493
0.000593750 32.0195
0.000609375 31.6063
0.000625000 31.2087
0.000640625 30.8257
0.000656250 30.4565
0.000671875 30.1003
0.000687500 29.7563
0.000718750 29.1022
0.000750000 28.4894
0.000781250 27.9138
0.000812500 27.3718
0.000843750 26.8601
0.000875000 26.3761
0.000906250 25.9173
0.000937500 25.4817
0.000968750 25.0673
0.00100000 24.6725
0.00103125 24.2958
0.00106250 23.9358
0.00109375 23.5914
0.00112500 23.2615
0.00115625 22.9450
0.00118750 22.6410
0.00121875 22.3489
0.00125000 22.0677
0.00128125 21.7970
0.00131250 21.5359
0.00134375 21.2840
0.00137500 21.0407
0.00143750 20.5782
0.00150000 20.1450
0.00156250 19.7379
0.00162500 19.3546
0.00168750 18.9928
0.00175000 18.6505
0.00181250 18.3261
0.00187500 18.0181
0.00193750 17.7251
0.00200000 17.4459
0.00209375 17.0508
0.00218750 16.6814
0.00228125 16.3350
0.00237500 16.0093
0.00246875 15.7023
0.00256250 15.4124
0.00265625 15.1379
0.00275000 14.8776
0.00284375 14.6303
0.00293750 14.3949
0.00303125 14.1705
0.00312500 13.9563
0.00321875 13.7515
0.00331250 13.5555
0.00340625 13.3676
0.00350000 13.1873
0.00359375 13.0142
0.00368750 12.8476
0.00378125 12.6874
0.00387500 12.5329
0.00396875 12.3840
0.00406250 12.2402
0.00425000 11.9671
0.00443750 11.7115
0.00462500 11.4716
0.00481250 11.2459
0.00500000 11.0330
0.00515625 10.8645
0.00531250 10.7035
0.00546875 10.5494
0.00562500 10.4019
0.00578125 10.2603
0.00593750 10.1244
0.00609375 9.99370
0.00625000 9.86797
0.00640625 9.74686
0.00656250 9.63011
0.00671875 9.51746
0.00687500 9.40866
0.00718750 9.20182
0.00750000 9.00803
0.00781250 8.82598
0.00812500 8.65453
0.00843750 8.49269
0.00875000 8.33959
0.00906250 8.19447
0.00937500 8.05667
0.00968750 7.92558
0.0100000 7.80070
0.0103125 7.68153
0.0106250 7.56767
0.0109375 7.45872
0.0112500 7.35435
0.0115625 7.25424
0.0118750 7.15812
0.0121875 7.06572
0.0125000 6.97681
0.0128125 6.89118
0.0131250 6.80863
0.0134375 6.72897
0.0137500 6.65205
0.0143750 6.50579
0.0150000 6.36876
0.0156250 6.24002
0.0162500 6.11876
0.0168750 6.00430
0.0175000 5.89601
0.0181250 5.79338
0.0187500 5.69591
0.0193750 5.60320
0.0200000 5.51487
0.0206625 5.42566
0.0213250 5.34063
0.0219875 5.25948
0.0226500 5.18191
0.0233125 5.10768
0.0239750 5.03654
0.0246375 4.96829
0.0253000 4.90275
0.0264578 4.79416
0.0276156 4.69248
0.0287734 4.59700
0.0299313 4.50713
0.0310891 4.42235
0.0322469 4.34218
0.0334047 4.26621
0.0345625 4.19409
0.0355274 4.13669
0.0364922 4.08157
0.0374570 4.02859
0.0384219 3.97760
0.0393867 3.92849
0.0403516 3.88116
0.0413164 3.83549
0.0422813 3.79139
0.0442109 3.70756
0.0461406 3.62904
0.0480703 3.55531
0.0500000 3.48588
0.0515625 3.43254
0.0531250 3.38157
0.0546875 3.33281
0.0562500 3.28608
0.0578125 3.24127
0.0593750 3.19823
0.0609375 3.15687
0.0625000 3.11707
0.0640625 3.07874
0.0656250 3.04180
0.0671875 3.00616
0.0687500 2.97175
0.0718750 2.90630
0.0750000 2.84496
0.0781250 2.78730
0.0812500 2.73299
0.0843750 2.68173
0.0875000 2.63323
0.0906250 2.58726
0.0937500 2.54361
0.0968750 2.50209
0.100000 2.46252
0.103125 2.42477
0.106250 2.38870
0.109375 2.35418
0.112500 2.32110
0.115625 2.28938
0.118750 2.25891
0.121875 2.22963
0.125000 2.20145
0.128125 2.17431
0.131250 2.14815
0.134375 2.12293
0.137500 2.09857
0.143750 2.05225
0.150000 2.00881
0.156250 1.96797
0.162500 1.92951
0.168750 1.89320
0.175000 1.85885
0.181250 1.82630
0.187500 1.79538
0.193750 1.76599
0.200000 1.73800
0.209375 1.69838
0.218750 1.66128
0.228125 1.62648
0.237500 1.59376
0.246875 1.56291
0.256250 1.53377
0.265625 1.50619
0.275000 1.48002
0.284375 1.45515
0.293750 1.43148
0.303125 1.40892
0.312500 1.38737
0.321875 1.36677
0.331250 1.34704
0.340625 1.32814
0.350000 1.30999
0.359375 1.29256
0.368750 1.27580
0.378125 1.25965
0.387500 1.24410
0.396875 1.22912
0.406250 1.21468
0.425000 1.18720
0.443750 1.16143
0.462500 1.13724
0.500000 1.09305
0.531250 1.05984
0.562500 1.02936
0.593750 1.00130
0.625000 0.975362
0.687500 0.928865
0.750000 0.888272
0.812500 0.852425
0.875000 0.820531
0.937500 0.791853
1.00000 0.765813
1.06250 0.742086
1.12500 0.720346
1.18750 0.700330
1.25000 0.681819
1.37500 0.648618
1.50000 0.619612
1.62500 0.593981
1.75000 0.571150
1.87500 0.550610
2.00000 0.531951
2.18750 0.506987
2.37500 0.485014
2.56250 0.465464
2.75000 0.447942
2.93750 0.432101
3.12500 0.417665
3.31250 0.404455
3.50000 0.392307
3.68750 0.381086
3.87500 0.370680
4.25000 0.351951
4.62500 0.335528
5.00000 0.320987
5.31250 0.310062
5.62500 0.300051
5.93750 0.290845
6.25000 0.282343
6.56250 0.274463
6.87500 0.267135
7.50000 0.253911
8.12500 0.242294
8.75000 0.232011
9.37500 0.222839
10.0000 0.214602
10.6250 0.207177
11.2500 0.200458
11.8750 0.194360
12.5000 0.188810
13.1250 0.183752
13.7500 0.179137
14.3750 0.174924
15.0000 0.171079
16.2500 0.164384
17.5000 0.158883
18.7500 0.154452
20.0000 0.151008
20.8928 0.149155
21.7856 0.147793
22.6784 0.146916
23.5713 0.146561
24.2855 0.146695
24.9998 0.147219
25.7140 0.148167
26.4283 0.149584
27.1425 0.151529
27.8568 0.154075
28.5710 0.157316
29.2853 0.161373
29.9995 0.166403
30.7138 0.172590
31.1155 0.176677
31.5173 0.181298
31.9191 0.186506
32.3208 0.192381
32.7226 0.199023
33.1244 0.206554
33.5261 0.215125
33.9279 0.224923
34.2850 0.234844
34.6421 0.246102
34.9993 0.258937
35.3564 0.273582
35.6019 0.284901
35.8474 0.297470
36.0930 0.311410
36.3385 0.326925
36.5840 0.344256
36.8295 0.363695
37.0751 0.385595
37.3206 0.410386
37.4768 0.427908
37.6331 0.446973
37.7893 0.467771
37.9455 0.490517
38.1018 0.515463
38.2580 0.542901
38.4143 0.573160
38.5705 0.606528
38.7268 0.643600
38.8830 0.685070
39.0392 0.731528
39.1174 0.756876
39.1955 0.783792
39.3182 0.829586
39.4410 0.880171
39.5638 0.936246
39.6865 0.998638
39.8093 1.06834
39.8707 1.10629
39.9321 1.14654
39.9934 1.18926
40.0548 1.23468
40.1162 1.28301
40.1776 1.33453
40.2669 1.41573
40.3561 1.50527
40.4454 1.60430
40.5347 1.71416
40.6240 1.83645
40.6686 1.90291
40.7133 1.97331
40.7579 2.04800
40.8025 2.12732
40.8472 2.21165
40.8918 2.30140
40.9532 2.43454
41.0146 2.58022
41.0760 2.74007
41.1373 2.91600
41.1987 3.11025
41.2601 3.32546
41.3215 3.56476
41.3522 3.69460
41.3829 3.83192
41.4415 4.11711
41.4708 4.27220
41.5001 4.43646
41.5294 4.61073
41.5586 4.79573
41.5879 4.99249
41.6172 5.20187
41.6465 5.42513
41.6758 5.66335
41.7051 5.91807
41.7344 6.19066
41.7637 6.48304
41.7930 6.79698
41.8223 7.13494
41.8516 7.49922
41.8823 7.91240
41.9130 8.36154
41.9437 8.85094
41.9744 9.38560
42.0050 9.97126
42.0357 10.6147
42.0664 11.3236
42.0971 12.1074
42.1278 12.9772
42.1585 13.9456
42.1739 14.4718
42.1892 15.0284
42.2045 15.6186
42.2199 16.2444
42.2352 16.9096
42.2506 17.6165
42.2659 18.3699
42.2813 19.1727
42.2966 20.0306
42.3120 20.9475
42.3273 21.9302
42.3426 22.9839
42.3636 24.5500
42.3845 26.2827
42.4054 28.2082
42.4159 29.2515
42.4263 30.3540
42.4368 31.5216
42.4473 32.7569
42.4577 34.0663
42.4682 35.4559
42.4787 36.9334
42.4891 38.5032
42.4996 40.1741
42.5100 41.9548
42.5254 44.7859
42.5407 47.9031
42.5561 51.3470
42.5714 55.1540
42.5868 59.3747
42.6021 64.0541
42.6098 66.5872
42.6175 69.2534
42.6251 72.0635
42.6328 75.0252
42.6405 78.1505
42.6482 81.4393
42.6558 84.9038
42.6635 88.5519
42.6712 92.3967
42.6788 96.4361
42.6865 100.682
42.6942 105.142
42.7019 109.829
42.7095 114.736
42.7249 125.246
42.7402 136.712
42.7556 149.124
42.7667 158.738
42.7779 168.822
42.7922 182.350
42.8064 196.490
42.8207 211.132
42.8349 226.094
42.8492 241.200
42.8635 256.200
42.8777 270.861
42.8920 284.887
42.9044 296.335
42.9168 306.900
42.9291 316.417
42.9415 324.696
42.9539 331.598
42.9663 336.976
42.9786 340.733
42.9910 342.788
43.0000 343.191
43.0124 342.233
43.0248 339.547
43.0371 335.183
43.0495 329.235
43.0619 321.812
43.0743 313.066
43.0866 303.147
43.0990 292.246
43.1203 271.699
43.1416 249.730
43.1629 227.218
43.1842 204.968
43.2026 186.411
43.2210 168.835
43.2394 152.443
43.2486 144.729
43.2578 137.362
43.2737 125.427
43.2817 119.846
43.2896 114.517
43.2976 109.436
43.3055 104.597
43.3135 99.9931
43.3214 95.6180
43.3294 91.4637
43.3373 87.5216
43.3453 83.7834
43.3532 80.2400
43.3612 76.8826
43.3691 73.7022
43.3771 70.6901
43.3850 67.8374
43.3943 64.7210
43.4035 61.7944
43.4127 59.0455
43.4219 56.4653
43.4311 54.0372
43.4403 51.7560
43.4495 49.6069
43.4587 47.5853
43.4679 45.6783
43.4771 43.8820
43.4863 42.1850
43.4955 40.5841
43.5047 39.0693
43.5139 37.6380
43.5323 34.9977
43.5508 32.6228
43.5692 30.4819
43.5876 28.5449
43.6060 26.7872
43.6244 25.1866
43.6428 23.7267
43.6612 22.3909
43.6796 21.1654
43.6964 20.1369
43.7131 19.1822
43.7299 18.2942
43.7466 17.4669
43.7633 16.6949
43.7801 15.9733
43.7968 15.2978
43.8135 14.6650
43.8303 14.0705
43.8470 13.5117
43.8638 12.9858
43.8805 12.4905
43.8972 12.0229
43.9140 11.5813
43.9307 11.1638
43.9474 10.7689
43.9659 10.3580
43.9843 9.97062
44.0027 9.60477
44.0211 9.25887
44.0579 8.62120
44.0947 8.04798
44.1316 7.53052
44.1684 7.06206
44.2052 6.63638
44.2420 6.24864
44.2672 6.00365
44.2923 5.77301
44.3174 5.55562
44.3425 5.35058
44.3676 5.15681
44.3927 4.97357
44.4429 4.63579
44.4931 4.33178
44.5433 4.05722
44.5935 3.80835
44.6438 3.58207
44.6806 3.42891
44.7174 3.28562
44.7542 3.15130
44.7911 3.02529
44.8279 2.90686
44.8647 2.79548
44.9015 2.69053
44.9384 2.59159
44.9752 2.49815
45.0120 2.40987
45.0857 2.24724
45.1593 2.10110
45.2329 1.96933
45.3066 1.85007
45.3802 1.74181
45.4539 1.64323
45.5275 1.55323
45.6012 1.47084
45.6748 1.39525
45.7485 1.32578
45.8221 1.26178
45.8958 1.20265
45.9694 1.14785
46.0431 1.09696
46.1167 1.04965
46.1904 1.00561
46.2640 0.964550
46.3377 0.926214
46.4113 0.890371
46.4850 0.856802
46.5586 0.825326
46.6323 0.795773
46.7059 0.767996
46.7796 0.741848
46.8532 0.717210
47.0005 0.672027
47.1076 0.642228
47.2148 0.614718
47.3487 0.583207
47.4826 0.554541
47.6165 0.528394
47.7504 0.504488
47.8843 0.482577
48.0182 0.462453
48.1521 0.443948
48.2860 0.426945
48.4467 0.408233
48.6074 0.391103
48.7681 0.375443
48.9288 0.361112
49.0894 0.347970
49.2501 0.335899
49.4108 0.324792
49.5715 0.314559
49.7858 0.302134
50.0000 0.290936
50.1614 0.283237
50.3229 0.276170
50.5650 0.266528
50.8072 0.257865
51.0494 0.250115
51.2915 0.243198
51.5337 0.237034
51.7758 0.231536
52.0180 0.226637
52.2601 0.222292
52.5830 0.217281
52.9059 0.213074
53.2288 0.209594
53.5516 0.206777
53.8745 0.204571
54.1974 0.202934
54.5203 0.201832
54.8431 0.201239
55.2871 0.201224
55.7310 0.202098
56.1750 0.203852
56.6189 0.206495
57.0629 0.210041
57.5069 0.214539
57.9508 0.220045
58.3948 0.226637
58.8791 0.235204
59.3634 0.245362
59.8073 0.256279
60.2513 0.268939
60.6952 0.283622
60.9172 0.291826
61.1392 0.300673
61.3612 0.310207
61.5832 0.320500
61.8051 0.331633
62.0271 0.343664
62.2491 0.356693
62.4711 0.370840
62.6930 0.386195
62.9150 0.402800
63.1975 0.426162
63.4800 0.452421
63.7626 0.481940
63.9038 0.498086
64.0451 0.515257
64.2671 0.544524
64.4890 0.576923
64.7110 0.612908
64.9330 0.653015
65.1550 0.697894
65.2660 0.722358
65.3769 0.748316
65.4879 0.775896
65.5989 0.805230
65.7099 0.836472
65.8209 0.869784
65.9823 0.922335
66.1438 0.980332
66.3052 1.04455
66.4666 1.11584
66.6281 1.19518
66.7088 1.23830
66.7895 1.28403
66.8702 1.33258
66.9510 1.38416
67.0317 1.43901
67.1124 1.49739
67.2234 1.58402
67.3344 1.67886
67.4454 1.78296
67.5563 1.89757
67.6673 2.02416
67.7783 2.16446
67.8893 2.32052
67.9448 2.40520
68.0003 2.49478
68.1012 2.67150
68.2021 2.86836
68.2525 2.97532
68.3030 3.08856
68.3534 3.20858
68.4039 3.33589
68.4543 3.47116
68.5048 3.61502
68.5552 3.76818
68.6057 3.93146
68.6561 4.10577
68.7066 4.29216
68.7570 4.49181
68.8075 4.70601
68.8630 4.96035
68.9185 5.23633
68.9740 5.53657
69.0295 5.86384
69.0850 6.22160
69.1404 6.61357
69.1959 7.04443
69.2514 7.51930
69.3069 8.04459
69.3624 8.62748
69.4179 9.27694
69.4457 9.62980
69.4734 10.0032
69.5012 10.3991
69.5289 10.8192
69.5567 11.2654
69.5844 11.7399
69.6122 12.2453
69.6399 12.7840
69.6676 13.3594
69.6954 13.9746
69.7332 14.8847
69.7711 15.8871
69.8089 16.9944
69.8467 18.2216
69.8846 19.5872
69.9035 20.3284
69.9224 21.1124
69.9413 21.9427
69.9603 22.8228
69.9792 23.7568
69.9981 24.7485
70.0258 26.3196
70.0536 28.0440
70.0813 29.9416
70.1091 32.0351
70.1368 34.3527
70.1646 36.9244
70.1784 38.3180
70.1923 39.7884
70.2062 41.3422
70.2201 42.9852
70.2453 46.2239
70.2705 49.8204
70.2831 51.7697
70.2957 53.8258
70.3083 55.9972
70.3210 58.2911
70.3336 60.7174
70.3462 63.2802
70.3588 65.9899
70.3714 68.8551
70.3840 71.8874
70.3966 75.0912
70.4092 78.4781
70.4219 82.0575
70.4446 89.0186
70.4673 96.6817
70.4900 105.096
70.5127 114.296
70.5354 124.308
70.5581 135.122
70.5808 146.718
70.6035 159.035
70.6240 170.688
70.6444 182.743
70.6649 195.076
70.6854 207.529
70.7058 219.919
70.7263 232.024
70.7468 243.619
70.7673 254.464
70.7839 262.538
70.8004 269.827
70.8170 276.220
70.8336 281.599
70.8502 285.878
70.8668 288.973
70.8834 290.832
70.9000 291.420
70.9166 290.725
70.9332 288.761
70.9498 285.562
70.9664 281.191
70.9830 275.720
70.9996 269.253
71.0162 261.895
71.0328 253.768
71.0545 242.175
71.0762 229.772
71.0979 216.844
71.1196 203.667
71.1413 190.474
71.1631 177.488
71.1848 164.875
71.2065 152.784
71.2259 142.510
71.2452 132.781
71.2646 123.625
71.2840 115.063
71.3034 107.084
71.3228 99.6839
71.3421 92.8421
71.3615 86.5361
71.3809 80.7295
71.4003 75.3930
71.4196 70.4932
71.4390 65.9963
71.4584 61.8694
71.4778 58.0811
71.4972 54.6016
71.5165 51.4033
71.5315 49.1074
71.5465 46.9546
71.5615 44.9318
71.5764 43.0321
71.5914 41.2443
71.6064 39.5626
71.6214 37.9772
71.6363 36.4833
71.6513 35.0726
71.6663 33.7409
71.6813 32.4812
71.6962 31.2900
71.7262 29.0920
71.7561 27.1149
71.7755 25.9393
71.7949 24.8376
71.8143 23.8039
71.8337 22.8327
71.8530 21.9193
71.8724 21.0592
71.8918 20.2484
71.9112 19.4837
71.9305 18.7608
71.9499 18.0773
71.9887 16.8172
72.0274 15.6840
72.0662 14.6616
72.1050 13.7356
72.1437 12.8946
72.1825 12.1285
72.2212 11.4290
72.2600 10.7882
72.2987 10.1999
72.3375 9.65864
72.3763 9.15955
72.4150 8.69813
72.4538 8.27077
72.4925 7.87416
72.5313 7.50541
72.5701 7.16197
72.6088 6.84157
72.6476 6.54223
72.6863 6.26221
72.7251 5.99977
72.7638 5.75354
72.8026 5.52223
72.8414 5.30471
72.8801 5.09981
72.9189 4.90661
72.9576 4.72425
72.9964 4.55198
73.0739 4.23464
73.1514 3.94962
73.2289 3.69261
73.3064 3.46013
73.3840 3.24910
73.4615 3.05700
73.5390 2.88161
73.6165 2.72108
73.6729 2.61271
73.7293 2.51081
73.7856 2.41484
73.8420 2.32442
73.8984 2.23908
73.9548 2.15848
74.0675 2.00999
74.1803 1.87645
74.2930 1.75594
74.4058 1.64687
74.5185 1.54787
74.5960 1.48501
74.6735 1.42601
74.7511 1.37054
74.8286 1.31835
74.9061 1.26916
74.9836 1.22277
75.0611 1.17895
75.1386 1.13753
75.2937 1.06118
75.4487 0.992547
75.6037 0.930612
75.7588 0.874536
75.9279 0.819206
76.0970 0.769215
76.2661 0.723895
76.4353 0.682689
76.6044 0.645134
76.7735 0.610882
76.9285 0.581997
77.0836 0.555186
77.2386 0.530298
77.3936 0.507178
77.5487 0.485665
77.7037 0.465613
77.8587 0.446895
78.0138 0.429394
78.1688 0.413005
78.3238 0.397640
78.4789 0.383213
78.6339 0.369650
78.7889 0.356883
78.9439 0.344852
79.2540 0.322778
79.5641 0.303044
79.8741 0.285332
80.1842 0.269376
80.4943 0.254950
80.8043 0.241865
81.1144 0.229962
81.4244 0.219101
81.7345 0.209168
81.9600 0.202503
82.2419 0.194738
82.5238 0.187468
82.8056 0.180715
83.0875 0.174444
83.3694 0.168575
83.6513 0.163111
84.2150 0.153198
84.5251 0.148277
84.8351 0.143679
85.1452 0.139374
85.4553 0.135354
86.0754 0.128041
86.6955 0.121589
87.3156 0.115858
87.9358 0.110756
88.5559 0.106193
89.1760 0.102107
89.7961 0.0984626
90.4163 0.0951249
91.0364 0.0920714
91.6565 0.0893430
92.2766 0.0868520
92.8968 0.0845508
93.5169 0.0824719
94.1370 0.0805748
95.3773 0.0772022
96.6175 0.0743673
97.8578 0.0719605
99.0980 0.0699000
100.000 0.0686042
101.758 0.0664759
103.516 0.0647845
105.274 0.0634485
107.031 0.0624100
108.789 0.0616254
110.547 0.0610612
112.305 0.0606918
114.063 0.0604997
115.430 0.0604652
116.797 0.0605622
119.531 0.0609063
122.266 0.0615624
125.000 0.0625232
128.125 0.0639996
131.250 0.0658726
134.375 0.0681642
137.500 0.0709108
140.625 0.0741605
142.188 0.0759945
143.750 0.0779862
145.313 0.0801446
146.875 0.0824835
148.438 0.0850189
150.000 0.0877688
152.149 0.0919571
154.297 0.0966304
156.445 0.101887
158.594 0.107853
159.668 0.111096
160.742 0.114563
162.891 0.122248
163.965 0.126460
165.039 0.131039
166.113 0.135906
167.188 0.141093
168.359 0.147294
169.531 0.154026
170.703 0.161289
171.875 0.169168
172.656 0.174858
173.438 0.180925
174.219 0.187382
175.000 0.194264
176.074 0.204505
177.149 0.215720
178.223 0.228061
179.297 0.241701
180.371 0.256779
181.445 0.273568
182.520 0.292305
183.594 0.313279
184.522 0.333544
185.449 0.356093
185.913 0.368285
186.377 0.381263
186.841 0.394932
187.305 0.409465
187.769 0.424910
188.233 0.441255
188.697 0.458766
189.160 0.477303
189.624 0.497151
190.088 0.518137
190.552 0.540805
191.016 0.565124
191.553 0.595549
192.090 0.628677
192.627 0.664842
193.164 0.704428
193.701 0.747882
194.238 0.795731
194.775 0.848589
195.313 0.907186
195.850 0.972401
196.118 1.00780
196.387 1.04525
196.655 1.08492
196.924 1.12698
197.193 1.17165
197.461 1.21912
197.730 1.26966
197.998 1.32351
198.267 1.38101
198.535 1.44245
198.804 1.50825
199.072 1.57877
199.341 1.65455
199.609 1.73603
200.000 1.86588
200.329 1.98710
200.657 2.12101
200.986 2.26937
201.315 2.43419
201.643 2.61790
201.808 2.71757
201.972 2.82310
202.136 2.93525
202.301 3.05444
202.465 3.18126
202.629 3.31631
202.861 3.52242
203.093 3.74870
203.325 3.99785
203.557 4.27310
203.770 4.55158
203.983 4.85845
204.195 5.19801
204.408 5.57474
204.621 5.99468
204.727 6.22276
204.833 6.46425
204.940 6.72047
205.046 6.99213
205.152 7.28075
205.258 7.58779
205.423 8.10272
205.587 8.67199
205.751 9.30385
205.916 10.0076
205.998 10.3900
206.080 10.7947
206.162 11.2237
206.244 11.6783
206.327 12.1621
206.409 12.6763
206.491 13.2248
206.573 13.8095
206.679 14.6273
206.786 15.5195
206.892 16.4965
206.998 17.5693
207.105 18.7507
207.211 20.0560
207.264 20.7613
207.317 21.5031
207.370 22.2871
207.424 23.1133
207.515 24.6562
207.561 25.4854
207.607 26.3573
207.653 27.2769
207.699 28.2433
207.745 29.2620
207.791 30.3368
207.837 31.4746
207.883 32.6749
207.929 33.9452
207.975 35.2912
208.021 36.7222
208.067 38.2388
208.112 39.8515
208.158 41.5686
208.212 43.7016
208.265 45.9990
208.318 48.4876
208.371 51.1785
208.424 54.1055
208.477 57.2844
208.530 60.7582
208.584 64.5494
208.637 68.7135
208.663 70.9475
208.690 73.2916
208.717 75.7531
208.743 78.3397
208.770 81.0599
208.796 83.9120
208.823 86.9272
208.849 90.1060
208.876 93.4600
208.903 96.9883
208.929 100.731
208.956 104.691
208.982 108.884
209.009 113.312
209.032 117.371
209.055 121.646
209.078 126.151
209.101 130.882
209.124 135.896
209.147 141.167
209.170 146.762
209.193 152.652
209.216 158.911
209.239 165.539
209.262 172.560
209.284 179.968
209.307 187.858
209.330 196.190
209.353 205.070
209.376 214.452
209.403 226.073
209.429 238.525
209.456 251.864
209.483 266.091
209.509 281.370
209.536 297.640
209.562 315.075
209.589 333.588
209.615 353.358
209.642 374.346
209.669 396.568
209.695 420.025
209.722 444.699
209.748 470.552
209.775 497.522
209.801 525.413
209.832 559.175
209.863 593.819
209.925 664.833
209.987 735.642
210.018 769.703
210.049 802.213
210.080 833.103
210.112 861.265
210.143 886.154
210.174 907.264
210.206 924.150
210.237 936.446
210.269 943.879
210.300 946.282
210.325 944.532
210.346 940.707
210.366 934.767
210.387 926.768
210.407 916.841
210.428 904.979
210.448 891.337
210.489 859.301
210.530 821.685
210.571 779.892
210.612 735.091
210.653 688.507
210.721 609.546
210.790 533.257
210.824 497.092
210.858 462.623
210.892 430.029
210.926 399.421
210.961 370.848
210.995 344.384
211.029 319.901
211.063 297.328
211.097 276.570
211.131 257.520
211.165 240.061
211.199 224.074
211.234 209.401
211.268 196.010
211.302 183.748
211.336 172.512
211.370 162.206
211.404 152.744
211.438 144.044
211.472 136.034
211.505 128.962
211.537 122.410
211.570 116.329
211.603 110.696
211.635 105.438
211.668 100.537
211.700 95.9650
211.733 91.7051
211.765 87.7066
211.798 83.9606
211.831 80.4466
211.863 77.1561
211.896 74.0521
211.928 71.1387
211.961 68.3842
211.993 65.7932
212.028 63.2214
212.062 60.8035
212.096 58.5208
212.130 56.3636
212.164 54.3171
212.198 52.3851
212.266 48.8168
212.335 45.5954
212.403 42.6858
212.471 40.0454
212.539 37.6422
212.620 35.0674
212.701 32.7507
212.781 30.6536
212.862 28.7541
212.943 27.0239
213.023 25.4471
213.104 24.0043
213.184 22.6805
213.253 21.6424
213.321 20.6750
213.389 19.7709
213.457 18.9246
213.526 18.1302
213.594 17.3858
213.662 16.6863
213.730 16.0281
213.798 15.4072
213.867 14.8225
213.935 14.2705
214.003 13.7487
214.140 12.7869
214.276 11.9231
214.412 11.1435
214.549 10.4380
214.685 9.79738
214.822 9.21446
214.958 8.68172
215.095 8.19429
215.231 7.74657
215.368 7.33505
215.486 7.00544
215.603 6.69805
215.721 6.41036
215.839 6.14103
215.957 5.88801
216.075 5.65038
216.193 5.42659
216.310 5.21600
216.428 5.01728
216.546 4.82990
216.664 4.65272
216.782 4.48529
217.018 4.17643
217.253 3.89855
217.390 3.75019
217.526 3.61018
217.663 3.47792
217.799 3.35294
218.072 3.12241
218.345 2.91504
218.618 2.72776
218.891 2.55819
219.164 2.40410
219.437 2.26368
219.610 2.18069
219.784 2.10225
220.131 1.95775
220.479 1.82783
220.826 1.71081
221.173 1.60514
221.521 1.50897
221.868 1.42118
222.215 1.34103
222.488 1.28281
222.761 1.22843
223.034 1.17754
223.307 1.12984
223.580 1.08507
223.853 1.04302
224.126 1.00346
224.399 0.966192
224.672 0.931042
224.945 0.897873
225.491 0.836882
226.036 0.782205
226.582 0.733009
227.128 0.688585
227.674 0.648357
228.220 0.611807
228.766 0.578518
229.311 0.548109
229.857 0.520274
230.403 0.494727
230.949 0.471244
231.470 0.450684
231.991 0.431553
232.512 0.413764
233.033 0.397170
233.554 0.381773
234.075 0.367427
234.596 0.353995
235.117 0.341488
235.638 0.329779
236.159 0.318789
236.680 0.308521
237.201 0.298876
238.243 0.281299
239.285 0.265743
240.377 0.251351
241.469 0.238616
242.561 0.227340
243.652 0.217355
244.744 0.208485
245.836 0.200628
246.927 0.193666
248.019 0.187503
248.813 0.183507
250.202 0.177362
251.592 0.172187
252.981 0.167892
254.371 0.164395
255.760 0.161635
257.149 0.159569
258.539 0.158169
259.928 0.157422
261.913 0.157476
262.906 0.157946
263.898 0.158792
264.890 0.159880
265.883 0.161355
267.868 0.165270
269.853 0.170714
270.845 0.173992
271.838 0.177786
272.830 0.181929
273.822 0.186649
274.815 0.191917
275.807 0.197626
276.899 0.204737
277.991 0.212724
279.082 0.221669
280.174 0.231695
281.266 0.242923
282.357 0.255539
283.449 0.269731
284.541 0.285725
285.583 0.302966
286.625 0.322416
287.146 0.333083
287.667 0.344436
288.188 0.356572
288.709 0.369509
289.230 0.383337
289.751 0.398169
290.272 0.414039
290.793 0.431073
291.314 0.449429
291.835 0.469146
292.356 0.490356
292.877 0.513187
293.423 0.539303
293.969 0.567758
294.515 0.598835
295.061 0.632850
295.607 0.670195
296.152 0.711302
296.698 0.756696
297.244 0.806994
297.790 0.862934
298.336 0.925366
298.609 0.959353
298.882 0.995361
299.155 1.03357
299.427 1.07416
299.700 1.11734
299.973 1.16332
300.246 1.21236
300.519 1.26473
300.792 1.32074
301.065 1.38074
301.338 1.44511
301.611 1.51424
301.909 1.59555
302.206 1.68374
302.504 1.77998
302.802 1.88513
303.100 2.00027
303.397 2.12661
303.695 2.26568
303.993 2.41925
304.266 2.57463
304.539 2.74579
304.811 2.93504
305.084 3.14501
305.357 3.37885
305.494 3.50592
305.630 3.64034
305.767 3.78288
305.903 3.93400
306.040 4.09464
306.176 4.26536
306.325 4.46441
306.474 4.67794
306.623 4.90740
306.771 5.15422
306.920 5.42050
307.069 5.70809
307.218 6.01929
307.367 6.35662
307.503 6.69197
307.640 7.05507
307.776 7.44911
307.913 7.87733
308.049 8.34444
308.186 8.85445
308.322 9.41363
308.459 10.0276
308.583 10.6404
308.707 11.3110
308.831 12.0483
308.893 12.4442
308.955 12.8600
309.017 13.2978
309.079 13.7578
309.141 14.2422
309.203 14.7528
309.265 15.2925
309.327 15.8616
309.389 16.4634
309.451 17.1004
309.519 17.8463
309.588 18.6413
309.656 19.4925
309.724 20.4026
309.792 21.3799
309.861 22.4284
309.929 23.5565
309.997 24.7728
310.065 26.0885
310.133 27.5107
310.202 29.0535
310.270 30.7309
310.304 31.6278
310.338 32.5621
310.372 33.5387
310.406 34.5603
310.440 35.6298
310.475 36.7501
310.509 37.9245
310.543 39.1566
310.577 40.4542
310.611 41.8139
310.645 43.2438
310.679 44.7491
310.713 46.3350
310.747 48.0076
310.782 49.7732
310.816 51.6389
310.850 53.6184
310.884 55.7087
310.918 57.9247
310.952 60.2769
310.986 62.7767
311.020 65.4366
311.054 68.2707
311.089 71.2945
311.126 74.8397
311.163 78.6472
311.200 82.7543
311.237 87.1930
311.275 92.0125
311.312 97.2275
311.349 102.896
311.386 109.070
311.421 115.242
311.455 121.921
311.489 129.179
311.523 137.079
311.557 145.689
311.591 155.085
311.625 165.346
311.659 176.564
311.676 182.578
311.693 188.869
311.711 195.449
311.728 202.290
311.745 209.487
311.762 216.967
311.779 224.833
311.796 233.006
311.813 241.596
311.830 250.515
311.847 259.881
311.864 269.597
311.881 279.789
311.898 290.349
311.932 312.857
311.966 337.261
312.000 363.464
312.035 391.548
312.069 421.489
312.103 453.221
312.137 486.623
312.171 521.522
312.205 557.682
312.271 629.857
312.337 702.752
312.402 772.799
312.435 805.492
312.468 835.931
312.497 860.476
312.526 882.524
312.555 901.757
312.584 917.841
312.613 930.643
312.642 939.903
312.671 945.478
312.700 947.278
312.723 945.990
312.761 938.747
312.799 925.311
312.836 906.038
312.874 881.424
312.912 852.087
312.949 818.733
312.987 782.127
313.025 743.167
313.076 687.033
313.128 629.775
313.180 572.867
313.231 517.927
313.271 477.209
313.311 438.724
313.351 402.615
313.391 369.029
313.432 337.950
313.472 309.518
313.492 296.244
313.512 283.580
313.532 271.511
313.552 260.019
313.574 247.970
313.596 236.626
313.618 225.903
313.640 215.773
313.662 206.165
313.684 197.136
313.706 188.614
313.728 180.571
313.750 172.946
313.772 165.781
313.794 159.016
313.816 152.627
313.838 146.591
313.860 140.886
313.882 135.491
313.904 130.387
313.926 125.534
313.948 120.959
313.992 112.510
314.036 104.884
314.080 98.0137
314.124 91.7792
314.168 86.1317
314.212 80.9898
314.256 76.2958
314.294 72.5545
314.332 69.0918
314.370 65.8725
314.408 62.8744
314.446 60.0705
314.484 57.4579
314.522 55.0132
314.560 52.7222
314.598 50.5667
314.636 48.5468
314.674 46.6461
314.712 44.8556
314.751 43.1625
314.789 41.5680
314.827 40.0607
314.865 38.6344
314.909 37.0731
314.953 35.6083
314.997 34.2259
315.041 32.9258
315.085 31.6961
315.129 30.5369
315.217 28.4023
315.305 26.4829
315.393 24.7526
315.481 23.1872
315.569 21.7680
315.673 20.2519
315.777 18.8897
315.881 17.6611
315.985 16.5504
316.090 15.5409
316.194 14.6215
316.298 13.7816
316.402 13.0130
316.490 12.4111
316.578 11.8500
316.666 11.3262
316.754 10.8369
316.842 10.3782
316.930 9.94814
317.018 9.54434
317.106 9.16514
317.194 8.80779
317.283 8.47103
317.371 8.15330
317.459 7.85352
317.547 7.56974
317.635 7.30113
317.811 6.80555
317.987 6.35876
318.163 5.95499
318.339 5.58849
318.516 5.25518
318.692 4.95083
318.868 4.67248
319.044 4.41712
319.220 4.18232
319.364 4.00389
319.508 3.83694
319.652 3.68041
319.797 3.53340
319.941 3.39500
320.085 3.26465
320.229 3.14165
320.373 3.02548
320.517 2.91561
320.661 2.81174
320.950 2.62016
321.238 2.44775
321.526 2.29203
321.702 2.20414
321.878 2.12133
322.054 2.04314
322.231 1.96930
322.583 1.83332
322.935 1.71123
323.287 1.60115
323.640 1.50158
323.992 1.41124
324.344 1.32903
324.568 1.28049
324.793 1.23464
325.241 1.15024
325.689 1.07448
326.138 1.00631
326.586 0.944862
327.034 0.888959
327.483 0.837987
327.931 0.791489
328.283 0.757753
328.636 0.726247
328.988 0.696782
329.340 0.669186
329.693 0.643304
330.045 0.618999
330.397 0.596147
330.749 0.574640
331.102 0.554365
331.454 0.535235
332.158 0.500090
332.863 0.468609
333.568 0.440313
334.336 0.412590
335.105 0.387726
335.873 0.365345
336.642 0.345134
337.411 0.326826
338.179 0.310201
338.948 0.295181
339.717 0.281346
340.421 0.269729
341.126 0.258978
341.830 0.249010
342.535 0.239819
343.239 0.231288
343.944 0.223339
344.649 0.215971
345.353 0.209121
346.058 0.202713
346.762 0.196749
348.171 0.185989
349.580 0.176593
350.990 0.168356
351.886 0.163661
352.783 0.159345
353.680 0.155376
354.576 0.151726
356.370 0.145289
358.163 0.139894
359.957 0.135409
361.750 0.131705
363.544 0.128698
365.337 0.126318
367.131 0.124514
368.924 0.123246
370.717 0.122490
372.511 0.122233
373.920 0.122399
375.329 0.122829
376.738 0.123509
378.147 0.124530
380.966 0.127399
382.375 0.129304
383.784 0.131550
385.193 0.134074
386.602 0.136967
388.011 0.140287
389.420 0.143945
390.829 0.148018
392.239 0.152644
393.648 0.157718
395.057 0.163269
396.466 0.169489
397.875 0.176394
399.284 0.184048
400.693 0.192546
402.103 0.201973
403.512 0.212472
404.921 0.224176
406.330 0.237246
407.739 0.251920
409.148 0.268405
410.557 0.287017
411.262 0.297234
411.966 0.308139
412.671 0.319748
413.376 0.332161
414.080 0.345472
414.785 0.359701
415.489 0.374966
416.194 0.391416
416.898 0.409100
417.603 0.428141
418.628 0.458554
419.332 0.481583
420.037 0.506695
420.741 0.534029
421.446 0.563848
422.151 0.596470
422.855 0.632247
423.560 0.671608
424.264 0.715034
424.969 0.763119
425.673 0.816545
426.378 0.876132
426.730 0.908537
427.082 0.942856
427.435 0.979264
427.787 1.01792
428.139 1.05903
428.492 1.10277
428.844 1.14940
429.196 1.19918
429.548 1.25239
429.901 1.30934
430.349 1.38786
430.797 1.47388
431.246 1.56822
431.694 1.67196
432.143 1.78700
432.591 1.91480
433.039 2.05722
433.263 2.13461
433.488 2.21650
433.872 2.36857
434.256 2.53718
434.640 2.72482
434.833 2.82670
435.025 2.93445
435.377 3.14900
435.553 3.26538
435.729 3.38836
435.906 3.51858
436.082 3.65648
436.258 3.80285
436.434 3.95819
436.610 4.12347
436.786 4.29934
436.962 4.48693
437.139 4.68708
437.315 4.90118
437.491 5.13024
437.667 5.37577
437.843 5.63933
438.035 5.94971
438.227 6.28643
438.420 6.65315
438.612 7.05320
438.804 7.49111
438.996 7.97118
439.188 8.49948
439.380 9.08202
439.556 9.67085
439.733 10.3187
439.909 11.0344
440.085 11.8270
440.173 12.2560
440.261 12.7087
440.349 13.1871
440.437 13.6924
440.525 14.2279
440.613 14.7947
440.701 15.3967
440.789 16.0353
440.909 16.9727
441.030 17.9944
441.150 19.1107
441.270 20.3337
441.390 21.6775
441.450 22.4003
441.510 23.1584
441.570 23.9569
441.630 24.7957
441.690 25.6807
441.750 26.6120
441.838 28.0734
441.926 29.6574
442.014 31.3779
442.102 33.2486
442.191 35.2917
442.279 37.5235
442.367 39.9729
442.411 41.2853
442.455 42.6621
442.499 44.1108
442.543 45.6293
442.587 47.2294
442.631 48.9089
442.675 50.6813
442.719 52.5444
442.763 54.5088
442.807 56.5816
442.851 58.7755
442.895 61.0889
442.939 63.5413
442.983 66.1312
443.027 68.8810
443.071 71.7895
443.115 74.8750
443.159 78.1507
443.223 83.2925
443.287 88.9068
443.351 95.0639
443.383 98.3554
443.415 101.802
443.448 105.423
443.480 109.205
443.512 113.166
443.544 117.316
443.576 121.676
443.608 126.230
443.640 130.998
443.672 135.990
443.716 143.253
443.760 150.961
443.804 159.170
443.848 167.860
443.892 177.084
443.936 186.812
443.980 197.068
444.024 207.849
444.076 221.146
444.127 235.089
444.179 249.648
444.230 264.746
444.282 280.280
444.333 296.121
444.436 328.070
444.507 349.483
444.577 369.856
444.648 388.558
444.718 404.948
444.789 418.419
444.824 423.896
444.859 428.439
444.894 432.025
444.930 434.597
444.965 436.140
445.000 436.630
445.047 435.644
445.085 433.473
445.123 430.102
445.162 425.574
445.200 419.944
445.238 413.282
445.276 405.665
445.314 397.181
445.353 387.951
445.429 367.527
445.505 345.228
445.582 321.851
445.658 298.154
445.729 276.217
445.801 254.933
445.872 234.614
445.944 215.504
446.015 197.683
446.086 181.262
446.158 166.200
446.193 159.176
446.229 152.500
446.265 145.984
446.302 139.808
446.338 133.942
446.375 128.372
446.411 123.072
446.448 118.057
446.484 113.301
446.520 108.789
446.557 104.498
446.593 100.438
446.630 96.5870
446.666 92.9318
446.739 86.1671
446.812 80.0623
446.885 74.5367
446.957 69.5396
447.030 64.9989
447.103 60.8757
447.176 57.1134
447.249 53.6825
447.322 50.5386
447.394 47.6596
447.451 45.5945
447.507 43.6578
447.563 41.8395
447.620 40.1302
447.676 38.5217
447.732 37.0063
447.789 35.5772
447.845 34.2303
447.901 32.9551
447.957 31.7489
448.070 29.5261
448.182 27.5242
448.295 25.7186
448.368 24.6407
448.441 23.6300
448.514 22.6783
448.586 21.7838
448.659 20.9396
448.732 20.1442
448.805 19.3921
448.878 18.6820
449.023 17.3725
449.169 16.1955
449.315 15.1336
449.461 14.1724
449.606 13.2998
449.752 12.5051
449.898 11.7794
450.043 11.1155
450.189 10.5058
450.335 9.94506
450.480 9.42821
450.626 8.95108
450.772 8.50900
450.917 8.09879
451.063 7.71741
451.209 7.36220
451.354 7.03087
451.500 6.72138
451.646 6.43189
451.791 6.16090
451.937 5.90655
452.083 5.66768
452.229 5.44304
452.374 5.23154
452.520 5.03217
452.666 4.84403
452.811 4.66628
452.957 4.49830
453.248 4.18837
453.540 3.90955
453.831 3.65783
454.122 3.42989
454.414 3.22269
454.705 3.03391
454.997 2.86134
455.288 2.70327
455.513 2.58998
455.738 2.48381
455.963 2.38414
456.188 2.29058
456.414 2.20254
456.639 2.11957
456.864 2.04114
457.089 1.96699
457.539 1.83041
457.990 1.70780
458.440 1.59735
458.890 1.49749
459.182 1.43790
459.473 1.38188
459.764 1.32917
460.056 1.27951
460.347 1.23265
460.639 1.18840
461.221 1.10700
461.804 1.03396
462.387 0.968195
462.970 0.908760
463.552 0.854892
464.188 0.801672
464.824 0.753548
465.459 0.709888
466.095 0.670164
466.731 0.633922
467.367 0.600793
468.002 0.570580
468.638 0.542685
469.221 0.519015
469.803 0.497025
470.386 0.476558
470.969 0.457507
471.552 0.439728
472.134 0.423113
472.717 0.407577
473.300 0.393032
473.883 0.379384
474.465 0.366580
475.048 0.354553
475.631 0.343237
476.796 0.322557
477.962 0.304170
479.021 0.289197
480.081 0.275683
481.140 0.263461
482.200 0.252395
483.260 0.242364
484.319 0.233265
485.379 0.225006
486.438 0.217543
488.133 0.206999
489.829 0.197964
491.524 0.190289
493.219 0.183821
494.914 0.178436
496.610 0.174036
498.305 0.170544
500.000 0.167906
501.977 0.165839
503.955 0.164813
506.055 0.164847
508.156 0.166042
510.257 0.168427
512.358 0.172060
513.408 0.174358
514.459 0.177037
515.509 0.180018
516.560 0.183369
517.610 0.187189
518.660 0.191450
519.711 0.196182
520.761 0.201424
522.121 0.209034
523.480 0.217666
524.839 0.227454
526.199 0.238551
527.558 0.251125
528.917 0.265408
530.277 0.281658
530.956 0.290617
531.636 0.300186
532.501 0.313351
533.366 0.327722
534.231 0.343439
535.096 0.360655
535.961 0.379557
536.826 0.400354
537.691 0.423302
538.556 0.448581
539.236 0.470358
539.916 0.494141
540.596 0.520067
541.275 0.548388
541.955 0.579404
542.635 0.613459
543.314 0.650958
543.994 0.692368
544.674 0.738260
545.353 0.789288
546.033 0.846244
546.373 0.877228
546.713 0.910063
547.053 0.944908
547.392 0.981909
547.732 1.02127
548.072 1.06317
548.412 1.10786
548.752 1.15555
549.092 1.20655
549.431 1.26116
549.864 1.33647
550.296 1.41897
550.729 1.50948
551.161 1.60913
551.594 1.71958
552.027 1.84233
552.459 1.97914
552.675 2.05351
552.892 2.13223
553.139 2.22804
553.386 2.33057
553.633 2.44056
553.880 2.55863
554.220 2.73588
554.560 2.93253
554.900 3.15163
555.070 3.27062
555.240 3.39660
555.410 3.53018
555.579 3.67182
555.749 3.82228
555.919 3.98227
556.089 4.15270
556.259 4.33425
556.429 4.52803
556.599 4.73521
556.769 4.95723
556.939 5.19535
557.109 5.45132
557.279 5.72696
557.449 6.02429
557.618 6.34561
557.788 6.69356
557.958 7.07116
558.128 7.48209
558.213 7.70121
558.298 7.92988
558.383 8.16923
558.468 8.41934
558.553 8.68148
558.638 8.95579
558.723 9.24372
558.808 9.54545
558.893 9.86263
558.978 10.1955
559.063 10.5461
559.148 10.9146
559.233 11.3032
559.318 11.7126
559.433 12.3082
559.549 12.9506
559.665 13.6445
559.781 14.3952
559.897 15.2104
560.013 16.0969
560.071 16.5699
560.129 17.0633
560.187 17.5791
560.245 18.1186
560.330 18.9568
560.414 19.8534
560.499 20.8162
560.584 21.8493
560.669 22.9624
560.754 24.1610
560.839 25.4570
560.924 26.8579
561.009 28.3787
561.094 30.0314
561.179 31.8314
561.264 33.7940
561.307 34.8446
561.349 35.9442
561.392 37.0960
561.434 38.3003
561.476 39.5662
561.519 40.8949
561.561 42.2903
561.604 43.7534
561.646 45.2956
561.689 46.9189
561.731 48.6286
561.774 50.4264
561.816 52.3271
561.859 54.3335
561.901 56.4532
561.944 58.6887
561.986 61.0593
562.029 63.5691
562.071 66.2284
562.114 69.0410
562.156 72.0319
562.199 75.2070
562.241 78.5797
562.283 82.1553
562.341 87.4149
562.399 93.1269
562.457 99.3539
562.515 106.120
562.573 113.494
562.631 121.497
562.689 130.187
562.747 139.607
562.789 147.007
562.832 154.831
562.874 163.089
562.917 171.764
562.959 180.897
563.002 190.463
563.044 200.451
563.087 210.817
563.138 223.932
563.190 237.535
563.242 251.540
563.293 265.838
563.396 294.775
563.500 323.071
563.562 339.280
563.625 354.322
563.687 367.824
563.750 379.413
563.812 388.804
563.875 395.694
563.938 399.901
564.000 401.282
564.046 400.485
564.083 398.720
564.120 395.983
564.157 392.299
564.194 387.708
564.231 382.241
564.268 375.983
564.342 361.310
564.416 344.209
564.490 325.332
564.564 305.270
564.638 284.607
564.792 241.876
564.869 221.537
564.946 202.306
565.023 184.375
565.061 175.932
565.100 167.848
565.138 160.123
565.177 152.757
565.215 145.745
565.254 139.079
565.294 132.496
565.334 126.267
565.374 120.379
565.414 114.819
565.454 109.570
565.495 104.618
565.535 99.9469
565.575 95.5525
565.615 91.3975
565.655 87.4788
565.695 83.7821
565.735 80.2938
565.775 77.0012
565.815 73.8919
565.855 70.9544
565.895 68.1844
565.935 65.5578
565.976 63.0722
566.016 60.7185
566.056 58.4883
566.136 54.3676
566.216 50.6579
566.296 47.3009
566.376 44.2590
566.457 41.4954
566.537 38.9814
566.591 37.3915
566.646 35.8955
566.701 34.4864
566.755 33.1601
566.810 31.9058
566.865 30.7206
566.920 29.5996
566.974 28.5403
567.084 26.5806
567.193 24.8161
567.302 23.2205
567.411 21.7729
567.492 20.7945
567.572 19.8803
567.652 19.0247
567.732 18.2239
567.812 17.4715
567.893 16.7646
567.973 16.0996
568.053 15.4740
568.133 14.8834
568.213 14.3259
568.293 13.7991
568.374 13.3014
568.534 12.3823
568.694 11.5557
568.855 10.8087
569.015 10.1323
569.175 9.51703
569.336 8.95656
569.496 8.44394
569.656 7.97446
569.817 7.54296
569.977 7.14597
570.116 6.82783
570.254 6.53061
570.393 6.25248
570.531 5.99178
570.670 5.74705
570.808 5.51698
570.947 5.30042
571.085 5.09649
571.223 4.90398
571.362 4.72220
571.500 4.55038
571.639 4.38792
571.916 4.08796
572.193 3.81800
572.353 3.67375
572.514 3.53757
572.674 3.40888
572.834 3.28721
573.155 3.06269
573.476 2.86059
573.796 2.67797
574.117 2.51250
574.438 2.36205
574.759 2.22487
575.138 2.07780
575.517 1.94502
575.896 1.82474
576.275 1.71549
576.654 1.61604
577.033 1.52527
577.412 1.44199
577.791 1.36536
578.111 1.30525
578.432 1.24912
578.753 1.19662
579.073 1.14745
579.394 1.10133
579.715 1.05801
580.036 1.01728
580.356 0.978928
580.677 0.942764
580.998 0.908648
581.639 0.845938
582.281 0.789743
582.922 0.739195
583.563 0.693566
584.205 0.652240
584.846 0.614697
585.488 0.580492
586.129 0.549244
586.770 0.520625
587.412 0.494351
588.053 0.470177
588.520 0.453805
588.986 0.438419
589.628 0.418628
590.269 0.400201
590.910 0.383088
591.552 0.367192
592.193 0.352392
592.835 0.338586
593.476 0.325705
594.117 0.313664
594.759 0.302386
595.400 0.291823
596.042 0.281918
596.683 0.272611
597.966 0.255638
599.249 0.240586
600.532 0.227204
601.814 0.215271
603.097 0.204608
604.380 0.195067
605.663 0.186515
606.946 0.178847
608.228 0.171971
609.511 0.165833
611.610 0.157140
612.660 0.153375
613.710 0.149918
614.759 0.146793
615.809 0.143999
616.858 0.141447
617.908 0.139233
618.958 0.137217
620.007 0.135512
622.106 0.132762
624.205 0.130934
626.305 0.130003
628.520 0.129992
629.628 0.130357
630.736 0.130986
631.844 0.131836
632.952 0.133009
634.060 0.134408
635.168 0.136127
636.276 0.138156
637.384 0.140466
638.491 0.143186
639.599 0.146201
640.707 0.149657
641.815 0.153446
642.923 0.157765
644.031 0.162589
645.314 0.168868
646.597 0.175973
647.879 0.184009
649.162 0.193102
650.445 0.203397
651.728 0.215077
653.011 0.228355
653.652 0.235673
654.293 0.243491
655.110 0.254238
655.926 0.265965
656.742 0.278787
657.559 0.292829
658.375 0.308243
659.191 0.325200
660.008 0.343905
660.824 0.364502
661.466 0.382242
662.107 0.401601
662.748 0.422700
663.390 0.445741
664.031 0.470961
664.673 0.498639
665.314 0.529100
665.955 0.562722
666.597 0.599958
667.238 0.641326
667.880 0.687460
668.200 0.712544
668.521 0.739114
668.842 0.767288
669.163 0.797197
669.483 0.828987
669.804 0.862816
670.125 0.898863
670.445 0.937324
670.766 0.978418
671.087 1.02239
671.495 1.08296
671.903 1.14924
672.311 1.22190
672.719 1.30181
673.128 1.39022
673.536 1.48835
673.944 1.59755
674.148 1.65683
674.352 1.71951
674.585 1.79571
674.819 1.87720
675.139 1.99886
675.460 2.13293
675.781 2.28118
676.101 2.44570
676.422 2.62895
676.583 2.72853
676.743 2.83388
676.903 2.94560
677.064 3.06405
677.224 3.18996
677.384 3.32378
677.632 3.54808
677.880 3.79597
678.128 4.07092
678.376 4.37693
678.499 4.54305
678.623 4.71883
678.747 4.90505
678.871 5.10258
678.995 5.31237
679.119 5.53548
679.243 5.77307
679.367 6.02641
679.527 6.38009
679.687 6.76574
679.848 7.18784
680.008 7.65047
680.169 8.15964
680.329 8.72102
680.489 9.34277
680.569 9.67885
680.650 10.0329
680.795 10.7291
680.868 11.1045
680.941 11.5000
681.014 11.9168
681.087 12.3566
681.160 12.8210
681.233 13.3112
681.306 13.8307
681.378 14.3808
681.451 14.9642
681.524 15.5835
681.597 16.2417
681.670 16.9421
681.743 17.6882
681.816 18.4831
681.896 19.4215
681.976 20.4323
682.056 21.5227
682.136 22.6997
682.217 23.9756
682.297 25.3595
682.377 26.8635
682.457 28.4991
682.537 30.2856
682.618 32.2385
682.698 34.3776
682.738 35.5239
682.778 36.7222
682.818 37.9817
682.858 39.3030
682.898 40.6898
682.938 42.1457
682.978 43.6749
683.018 45.2817
683.059 46.9705
683.099 48.7414
683.139 50.6081
683.179 52.5716
683.219 54.6369
683.259 56.8095
683.299 59.0949
683.339 61.4988
683.379 64.0268
683.419 66.6778
683.459 69.4707
683.499 72.4042
683.540 75.4836
683.580 78.7138
683.620 82.0989
683.660 85.6427
683.700 89.3481
683.740 93.2073
683.779 97.1173
683.818 101.171
683.895 109.733
683.973 118.883
684.051 128.539
684.128 138.636
684.206 149.020
684.361 170.004
684.441 180.471
684.521 190.356
684.601 199.368
684.681 207.210
684.760 213.633
684.800 216.237
684.840 218.394
684.880 220.094
684.920 221.313
684.960 222.044
685.000 222.279
685.053 221.816
685.097 220.791
685.140 219.197
685.183 217.052
685.226 214.386
685.270 211.218
685.313 207.596
685.356 203.542
685.399 199.115
685.486 189.272
685.573 178.455
685.659 167.020
685.746 155.310
685.833 143.466
685.921 131.925
686.009 120.865
686.096 110.455
686.184 100.762
686.228 96.2111
686.271 91.8557
686.315 87.6964
686.359 83.7314
686.403 79.9574
686.447 76.3702
686.492 72.8357
686.538 69.4973
686.583 66.3395
686.628 63.3545
686.674 60.5281
686.719 57.8646
686.765 55.3494
686.810 52.9744
686.856 50.7269
686.901 48.6091
686.946 46.6085
686.992 44.7181
687.037 42.9311
687.083 41.2412
687.128 39.6423
687.173 38.1288
687.219 36.6922
687.264 35.3339
687.355 32.8239
687.446 30.5592
687.537 28.5152
687.628 26.6616
687.718 24.9801
687.809 23.4492
687.900 22.0521
687.962 21.1674
688.024 20.3352
688.086 19.5493
688.148 18.8085
688.210 18.1075
688.272 17.4455
688.396 16.2248
688.519 15.1258
688.643 14.1345
688.767 13.2360
688.891 12.4205
688.982 11.8684
689.073 11.3525
689.164 10.8689
689.254 10.4157
689.345 9.98974
689.436 9.58967
689.527 9.21305
689.618 8.85810
689.709 8.52284
689.799 8.20654
689.890 7.90716
689.981 7.62413
690.163 7.10145
690.344 6.63089
690.526 6.20531
690.708 5.81938
690.889 5.46834
691.071 5.14829
691.253 4.85539
691.434 4.58682
691.616 4.33999
691.798 4.11276
691.955 3.93059
692.112 3.76032
692.268 3.60093
692.425 3.45147
692.582 3.31112
692.739 3.17912
692.896 3.05483
693.053 2.93767
693.210 2.82712
693.367 2.72270
693.524 2.62397
693.681 2.53053
693.994 2.35807
694.308 2.20278
694.490 2.11977
694.671 2.04139
694.853 1.96730
695.035 1.89723
695.398 1.76785
695.761 1.65137
696.125 1.54608
696.488 1.45063
696.852 1.36379
697.215 1.28459
697.644 1.19964
698.074 1.12292
698.503 1.05339
698.932 0.990202
699.362 0.932668
699.791 0.880133
700.221 0.831914
700.650 0.787526
701.013 0.752695
701.377 0.720163
701.740 0.689717
702.103 0.661197
702.467 0.634429
702.830 0.609287
703.194 0.585629
703.557 0.563351
703.920 0.542338
704.284 0.522505
704.647 0.503755
705.010 0.486021
705.737 0.453301
706.464 0.423845
707.190 0.397227
707.917 0.373095
708.644 0.351148
709.370 0.331130
710.097 0.312820
710.824 0.296028
711.550 0.280592
712.277 0.266370
712.806 0.256723
713.334 0.247647
714.061 0.235957
714.787 0.225050
715.514 0.214901
716.241 0.205455
716.968 0.196641
717.694 0.188399
718.421 0.180690
719.148 0.173465
719.874 0.166679
720.601 0.160302
721.328 0.154303
722.054 0.148647
722.781 0.143311
723.508 0.138273
724.961 0.128996
726.414 0.120669
727.868 0.113162
729.321 0.106370
730.775 0.100206
732.228 0.0945906
733.681 0.0894625
735.135 0.0847652
736.588 0.0804504
737.645 0.0775296
738.702 0.0747870
740.816 0.0697391
742.930 0.0652077
745.044 0.0611333
747.158 0.0574553
749.272 0.0541228
751.386 0.0510963
751.650 0.0507911
751.915 0.0510426
752.047 0.0521992
752.179 0.0555550
752.245 0.0588614
752.311 0.0639497
752.377 0.0716045
752.443 0.0828087
752.509 0.0988752
752.575 0.121359
752.608 0.135600
752.641 0.152114
752.674 0.171210
752.707 0.193167
752.740 0.218354
752.773 0.246909
752.806 0.279195
752.839 0.315494
752.873 0.356207
752.906 0.401341
752.939 0.451240
752.972 0.506100
753.005 0.566268
753.038 0.631493
753.071 0.702010
753.104 0.777825
753.137 0.859135
753.170 0.945330
753.203 1.03646
753.236 1.13228
753.269 1.23277
753.302 1.33694
753.335 1.44465
753.368 1.55539
753.434 1.78411
753.500 2.01760
753.500 3.98646
815.125 3.78414
876.750 3.60575
938.375 3.44707
1000.00 3.30482
1070.31 3.14192
1140.63 2.99667
1210.94 2.86624
1281.25 2.74839
1351.56 2.64130
1421.88 2.54351
1492.19 2.45380
1562.50 2.37118
1567.80 2.36521
1567.83 2.36518
1608.03 2.32105
1673.59 2.25307
1739.15 2.18958
1843.75 2.09648
1870.27 2.07433
1997.64 1.97512
2125.00 1.88636
2132.52 1.88141
2263.65 1.79972
2394.77 1.72589
2525.90 1.65878
2657.02 1.59749
2687.50 1.58399
2811.01 1.53193
2934.51 1.48370
3058.02 1.43889
3181.52 1.39713
3250.00 1.37517
3478.01 1.30752
3706.02 1.24720
3812.50 1.22119
4093.75 1.15821
4375.00 1.10236
4565.01 1.06804
4755.01 1.03612
5127.51 0.979593
5500.00 0.929798
5804.01 0.893320
6214.51 0.849042
6625.00 0.809588
6906.25 0.784931
7187.50 0.761966
7750.00 0.720431
7902.00 0.710096
8388.50 0.679227
8875.00 0.651330
9437.50 0.622225
10000.0 0.595996
10703.2 0.564617
11406.3 0.536735
12109.4 0.511779
12812.5 0.489298
13515.6 0.468927
14218.8 0.450376
14921.9 0.433402
15625.0 0.417806
16328.1 0.403421
17031.3 0.390108
17734.4 0.377747
18437.5 0.366236
19843.8 0.345424
21250.0 0.327104
22538.0 0.312136
23826.0 0.298630
25114.0 0.286375
26402.0 0.275199
26432.0 0.274950
26875.0 0.271336
27006.7 0.270283
27581.5 0.265790
28731.0 0.257291
29880.5 0.249381
31030.0 0.242000
32301.0 0.234390
32301.3 0.234388
32361.6 0.234040
32500.0 0.233247
33329.0 0.228617
33418.4 0.228130
34475.3 0.222546
35628.0 0.216796
36589.0 0.212251
38125.0 0.205417
40226.0 0.196831
40816.4 0.194561
43750.0 0.184104
44824.0 0.180585
45043.8 0.179883
47157.5 0.173436
49271.2 0.167487
51645.6 0.161329
54020.0 0.155659
55000.0 0.153448
57726.0 0.147652
60471.0 0.142292
63216.0 0.137352
66180.8 0.132431
66250.0 0.132321
69062.5 0.128014
71875.0 0.124011
74687.5 0.120279
77500.0 0.116792
81608.0 0.112088
83090.4 0.110494
88750.0 0.104848
94375.0 0.0998428
100000 0.0953464
106250 0.0918391
112500 0.0886506
118750 0.0857365
125000 0.0830605
131250 0.0805926
137500 0.0783079
150000 0.0742069
160000 0.0713045
168341 0.0690444
168705 0.0689498
169070 0.0688556
169798 0.0686682
171256 0.0682973
172713 0.0679315
174170 0.0675707
177085 0.0668636
180000 0.0661752
185000 0.0651272
190000 0.0641231
195000 0.0631599
200000 0.0622351
206250 0.0613613
212500 0.0605253
225000 0.0589564
237500 0.0575097
250000 0.0561701
262500 0.0549248
275000 0.0537632
287500 0.0526761
300000 0.0516560
321633 0.0491108
343265 0.0468448
364898 0.0448127
386530 0.0429783
386530 0.0429783
387372 0.0429105
388214 0.0428430
389898 0.0427086
393265 0.0424429
396633 0.0421811
400000 0.0419231
404145 0.0416106
408290 0.0413037
416580 0.0407055
416581 0.0407055
416600 0.0407041
427025 0.0399805
437450 0.0392868
450000 0.0384886
458300 0.0379815
466731 0.0374824
467771 0.0374219
468810 0.0373617
470890 0.0372419
475048 0.0370050
479207 0.0367717
483366 0.0365418
491683 0.0360922
500000 0.0356555
522863 0.0340563
545725 0.0325929
545725 0.0325928
547886 0.0324609
550047 0.0323300
551479 0.0322439
552911 0.0321582
555775 0.0319881
555776 0.0319881
557939 0.0318608
560102 0.0317345
564428 0.0314849
568755 0.0312391
573081 0.0309971
581734 0.0305240
590388 0.0300649
599041 0.0296193
607694 0.0291865
625000 0.0283574
636820 0.0278173
648639 0.0272972
648639 0.0272972
650968 0.0271970
653296 0.0270975
657952 0.0269007
662608 0.0267068
667265 0.0265155
676577 0.0261410
685890 0.0257768
695203 0.0254225
704516 0.0250776
723141 0.0244149
736679 0.0239546
738344 0.0238991
740009 0.0238439
743340 0.0237343
750000 0.0235180
769845 0.0229040
770046 0.0228979
771843 0.0228439
773639 0.0227902
777232 0.0226835
784418 0.0224730
791604 0.0222663
798790 0.0220634
813162 0.0216684
824648 0.0213627
827535 0.0212873
841907 0.0209192
856279 0.0205635
870651 0.0202197
885023 0.0198871
913767 0.0192535
942512 0.0186588
971256 0.0180995
1.00000E+06 0.0175726
1.01563E+06 0.0173945
1.03125E+06 0.0172208
1.06250E+06 0.0168863
1.09375E+06 0.0165676
1.12500E+06 0.0162637
1.15625E+06 0.0159735
1.18750E+06 0.0156960
1.21875E+06 0.0154303
1.25000E+06 0.0151757
1.31250E+06 0.0146968
1.37500E+06 0.0142543
1.43750E+06 0.0138439
1.50000E+06 0.0134621
1.56250E+06 0.0131058
1.62500E+06 0.0127723
1.68750E+06 0.0124594
1.75000E+06 0.0121651
1.87500E+06 0.0116259
2.00000E+06 0.0111431
2.12500E+06 0.0105143
2.25000E+06 0.00995394
2.37500E+06 0.00945142
2.50000E+06 0.00899815
2.62500E+06 0.00858719
2.75000E+06 0.00821285
2.87500E+06 0.00787040
3.00000E+06 0.00755592
3.12500E+06 0.00709005
3.25000E+06 0.00666953
3.37500E+06 0.00628845
3.50000E+06 0.00594185
3.62500E+06 0.00562553
3.75000E+06 0.00533593
3.87500E+06 0.00507003
4.00000E+06 0.00482520
4.09024E+06 0.00454474
4.18048E+06 0.00428618
4.27071E+06 0.00404739
4.36095E+06 0.00382649
4.45119E+06 0.00362181
4.54143E+06 0.00343186
4.63166E+06 0.00325532
4.72190E+06 0.00309101
4.79143E+06 0.00297209
4.86095E+06 0.00285935
5.00000E+06 0.00265088
5.08285E+06 0.00253648
5.17309E+06 0.00241945
5.26333E+06 0.00230971
5.35356E+06 0.00220669
5.44380E+06 0.00210987
5.50410E+06 0.00204840
5.58285E+06 0.00197176
5.72190E+06 0.00184576
5.79143E+06 0.00178688
5.86095E+06 0.00173055
5.93048E+06 0.00167663
6.00000E+06 0.00162499
6.06398E+06 0.00153028
6.12797E+06 0.00144200
6.19195E+06 0.00135965
6.25593E+06 0.00128278
6.25593E+06 0.00128278
6.34491E+06 0.00118421
6.43389E+06 0.00109443
6.52286E+06 0.00101256
6.61184E+06 0.000937797
6.62568E+06 0.000926761
6.70082E+06 0.000869446
6.78980E+06 0.000806882
6.87877E+06 0.000749548
6.96775E+06 0.000696948
7.05673E+06 0.000648638
7.14571E+06 0.000604220
7.23468E+06 0.000563338
7.32366E+06 0.000525673
7.41264E+06 0.000490935
7.50162E+06 0.000458868
7.59059E+06 0.000429236
7.67957E+06 0.000401831
7.73987E+06 0.000384427
7.75968E+06 0.000378904
7.83979E+06 0.000357501
7.91989E+06 0.000337507
8.00000E+06 0.000318815
8.06250E+06 0.000294017
8.12500E+06 0.000271318
8.18750E+06 0.000250525
8.25000E+06 0.000231466
8.31250E+06 0.000213985
8.37500E+06 0.000197940
8.43750E+06 0.000183205
8.50000E+06 0.000169663
8.56250E+06 0.000157211
8.62500E+06 0.000145753
8.68750E+06 0.000135205
8.75000E+06 0.000125487
8.81250E+06 0.000116530
8.87500E+06 0.000108268
8.93750E+06 0.000100645
9.00000E+06 9.36052E-05
9.06250E+06 8.71019E-05
9.12500E+06 8.10906E-05
9.18750E+06 7.55310E-05
9.25000E+06 7.03865E-05
9.31250E+06 6.56235E-05
9.37500E+06 6.12115E-05
9.43750E+06 5.71226E-05
9.50000E+06 5.33311E-05
9.56250E+06 4.98137E-05
9.62500E+06 4.65490E-05
9.68750E+06 4.35173E-05
9.75000E+06 4.07007E-05
9.81250E+06 3.80827E-05
9.87500E+06 3.56482E-05
9.93750E+06 3.33831E-05
1.00000E+07 3.12749E-05
1.00625E+07 2.89538E-05
1.01250E+07 2.68177E-05
1.01875E+07 2.48509E-05
1.02500E+07 2.30391E-05
1.03125E+07 2.13693E-05
1.03750E+07 1.98294E-05
1.04375E+07 1.84088E-05
1.05000E+07 1.70976E-05
1.05625E+07 1.58867E-05
1.06250E+07 1.47680E-05
1.06875E+07 1.37339E-05
1.07500E+07 1.27777E-05
1.08125E+07 1.18930E-05
1.08750E+07 1.10741E-05
1.09375E+07 1.03158E-05
1.10000E+07 9.61338E-06
1.10625E+07 8.96234E-06
1.11250E+07 8.35868E-06
1.11875E+07 7.79873E-06
1.12500E+07 7.27911E-06
1.13125E+07 6.79670E-06
1.13750E+07 6.34866E-06
1.14375E+07 5.93237E-06
1.15000E+07 5.54543E-06
1.15625E+07 5.18562E-06
1.16250E+07 4.85091E-06
1.16875E+07 4.53943E-06
1.17500E+07 4.24945E-06
1.18125E+07 3.97939E-06
1.18750E+07 3.72779E-06
1.19375E+07 3.49329E-06
1.20000E+07 3.27465E-06
1.20625E+07 3.05604E-06
1.21250E+07 2.85305E-06
1.21875E+07 2.66448E-06
1.22500E+07 2.48924E-06
1.23125E+07 2.32633E-06
1.23750E+07 2.17483E-06
1.24375E+07 2.03389E-06
1.25000E+07 1.90272E-06
1.25625E+07 1.78060E-06
1.26250E+07 1.66687E-06
1.26875E+07 1.56091E-06
1.27500E+07 1.46215E-06
1.28125E+07 1.37009E-06
1.28750E+07 1.28422E-06
1.29375E+07 1.20412E-06
1.30000E+07 1.12936E-06
1.30625E+07 1.05957E-06
1.31250E+07 9.94395E-07
1.31875E+07 9.33510E-07
1.32500E+07 8.76615E-07
1.33125E+07 8.23432E-07
1.33750E+07 7.73701E-07
1.34375E+07 7.27186E-07
1.35000E+07 6.83663E-07
1.35625E+07 6.42929E-07
1.36250E+07 6.04792E-07
1.36875E+07 5.69077E-07
1.37500E+07 5.35619E-07
1.38125E+07 5.04267E-07
1.38750E+07 4.74880E-07
1.39375E+07 4.47326E-07
1.40000E+07 4.21483E-07
1.40812E+07 3.89934E-07
1.41625E+07 3.60912E-07
1.42437E+07 3.34194E-07
1.43249E+07 3.09592E-07
1.43250E+07 3.09578E-07
1.43773E+07 2.94758E-07
1.44297E+07 2.80697E-07
1.44820E+07 2.67354E-07
1.44841E+07 2.66834E-07
1.45343E+07 2.54693E-07
1.45867E+07 2.42672E-07
1.46390E+07 2.31260E-07
1.46914E+07 2.20420E-07
1.47437E+07 2.10127E-07
1.47961E+07 2.00346E-07
1.48484E+07 1.91055E-07
1.49008E+07 1.82223E-07
1.49531E+07 1.73830E-07
1.50055E+07 1.65849E-07
1.50578E+07 1.58262E-07
1.51101E+07 1.51045E-07
1.51625E+07 1.44182E-07
1.52148E+07 1.37652E-07
1.52672E+07 1.31439E-07
1.53195E+07 1.25526E-07
1.53719E+07 1.19898E-07
1.54242E+07 1.14540E-07
1.54766E+07 1.09439E-07
1.55289E+07 1.04580E-07
1.55812E+07 9.99533E-08
1.56336E+07 9.55449E-08
1.56859E+07 9.13454E-08
1.57383E+07 8.73429E-08
1.57906E+07 8.35289E-08
1.58430E+07 7.98925E-08
1.58953E+07 7.64264E-08
1.59477E+07 7.31206E-08
1.60000E+07 6.99686E-08
1.61250E+07 6.52313E-08
1.62500E+07 6.08478E-08
1.63750E+07 5.67890E-08
1.65000E+07 5.30288E-08
1.66250E+07 4.95432E-08
1.67500E+07 4.63103E-08
1.68750E+07 4.33101E-08
1.70000E+07 4.05243E-08
1.71250E+07 3.79361E-08
1.72500E+07 3.55303E-08
1.73750E+07 3.32928E-08
1.75000E+07 3.12107E-08
1.76250E+07 2.92724E-08
1.77500E+07 2.74668E-08
1.78750E+07 2.57841E-08
1.80000E+07 2.42152E-08
1.82500E+07 2.26106E-08
1.85000E+07 2.11321E-08
1.87500E+07 1.97681E-08
1.90000E+07 1.85086E-08
1.92500E+07 1.73442E-08
1.95000E+07 1.62667E-08
1.97500E+07 1.52686E-08
2.00000E+07 1.43432E-08
2.00000E+07 0.00000
2.10000E+07 0.00000
2.10281E+07 0.00000
2.20000E+07 0.00000
2.30000E+07 0.00000
2.40000E+07 0.00000
2.50000E+07 0.00000
2.59599E+07 0.00000
2.60000E+07 0.00000
2.64949E+07 0.00000
2.70000E+07 0.00000
2.77533E+07 0.00000
2.80000E+07 0.00000
2.80515E+07 0.00000
2.90000E+07 0.00000
2.95551E+07 0.00000
3.00000E+07 0.00000
3.10000E+07 0.00000
3.19121E+07 0.00000
3.20000E+07 0.00000
3.27254E+07 0.00000
3.30000E+07 0.00000
3.40000E+07 0.00000
3.43383E+07 0.00000
3.44300E+07 0.00000
3.50000E+07 0.00000
3.60000E+07 0.00000
3.63746E+07 0.00000
3.70000E+07 0.00000
3.80000E+07 0.00000
3.80302E+07 0.00000
3.90000E+07 0.00000
3.99416E+07 0.00000
4.00000E+07 0.00000
4.08423E+07 0.00000
4.10000E+07 0.00000
4.20000E+07 0.00000
4.28424E+07 0.00000
4.30000E+07 0.00000
4.30552E+07 0.00000
4.40000E+07 0.00000
4.50000E+07 0.00000
4.52724E+07 0.00000
4.60000E+07 0.00000
4.70000E+07 0.00000
4.71934E+07 0.00000
4.80000E+07 0.00000
4.90000E+07 0.00000
4.95289E+07 0.00000
4.95895E+07 0.00000
5.00000E+07 0.00000
5.10000E+07 0.00000
5.20000E+07 0.00000
5.21934E+07 0.00000
5.30000E+07 0.00000
5.40000E+07 0.00000
5.50000E+07 0.00000
5.54349E+07 0.00000
5.60000E+07 0.00000
5.70000E+07 0.00000
5.80000E+07 0.00000
5.84850E+07 0.00000
5.85717E+07 0.00000
5.90000E+07 0.00000
6.00000E+07 0.00000
6.10000E+07 0.00000
6.16207E+07 0.00000
6.20000E+07 0.00000
6.30000E+07 0.00000
6.40000E+07 0.00000
6.50000E+07 0.00000
6.55952E+07 0.00000
6.60000E+07 0.00000
6.70000E+07 0.00000
6.80000E+07 0.00000
6.88221E+07 0.00000
6.90000E+07 0.00000
7.00000E+07 0.00000
7.10000E+07 0.00000
7.20000E+07 0.00000
7.30000E+07 0.00000
7.40000E+07 0.00000
7.46930E+07 0.00000
7.50000E+07 0.00000
7.60000E+07 0.00000
7.70000E+07 0.00000
7.80000E+07 0.00000
7.81018E+07 0.00000
7.90000E+07 0.00000
8.00000E+07 0.00000
8.10000E+07 0.00000
8.20000E+07 0.00000
8.30000E+07 0.00000
8.40000E+07 0.00000
8.50000E+07 0.00000
8.60000E+07 0.00000
8.70000E+07 0.00000
8.80000E+07 0.00000
8.90000E+07 0.00000
9.00000E+07 0.00000
9.10000E+07 0.00000
9.20000E+07 0.00000
9.30000E+07 0.00000
9.40000E+07 0.00000
9.50000E+07 0.00000
9.60000E+07 0.00000
9.70000E+07 0.00000
9.80000E+07 0.00000
9.90000E+07 0.00000
1.00000E+08 0.00000
1.02000E+08 0.00000
1.04000E+08 0.00000
1.06000E+08 0.00000
1.08000E+08 0.00000
1.10000E+08 0.00000
1.12000E+08 0.00000
1.14000E+08 0.00000
1.16000E+08 0.00000
1.18000E+08 0.00000
1.20000E+08 0.00000
1.22000E+08 0.00000
1.24000E+08 0.00000
1.26000E+08 0.00000
1.28000E+08 0.00000
1.30000E+08 0.00000
1.32000E+08 0.00000
1.34000E+08 0.00000
1.36000E+08 0.00000
1.38000E+08 0.00000
1.40000E+08 0.00000
1.42000E+08 0.00000
1.44000E+08 0.00000
1.46000E+08 0.00000
1.48000E+08 0.00000
1.50000E+08 0.00000
